Fz,Cz,Pz,Oz,F3,F4,C3,C4
0.7451,2.5913,-0.4918,0.3035,0.8932,-2.0709,0.8861,1.6278
2.3905,4.1280,3.0424,5.6424,1.9415,2.1721,3.0471,3.4351
5.8623,6.6523,6.6392,5.0265,5.0526,4.8644,6.5096,5.6887
8.9154,9.2531,6.2892,11.2930,7.0629,6.8500,8.2714,8.4590
7.3206,11.6421,8.2589,11.5124,5.5139,8.7980,8.2295,10.1933
7.6400,9.9532,9.8574,12.2225,6.5158,6.6586,11.6038,12.1229
10.0540,11.0576,8.7855,12.0440,8.9117,6.4744,14.0598,13.2834
8.0897,8.2609,9.5623,10.9441,6.9883,5.6376,9.3067,11.1718
5.2726,10.2712,9.6651,12.1802,4.2519,4.5702,8.5128,11.4530
5.8261,9.3627,10.9941,9.2257,3.6168,3.3988,7.2526,7.1115
3.5008,6.3695,9.1905,4.4029,2.1394,3.2348,8.5420,6.8332
2.8895,8.2306,8.0755,3.8244,4.4225,3.6533,7.1136,5.3544
3.5154,2.8798,7.9489,3.2510,2.2741,3.1636,5.2664,5.9759
-0.0946,1.3731,5.2468,1.9554,3.2702,3.6028,3.1833,4.0218
-0.2819,2.6532,4.6911,-0.6683,4.8704,0.7780,3.6273,4.5834
0.7595,2.4345,2.4617,-0.8242,1.8329,3.0743,-0.1658,0.7847
-0.9335,1.6975,1.3980,-7.5835,4.6311,3.0122,0.8009,0.6503
-0.2663,-3.4035,-1.5644,-6.2886,-1.2937,2.0954,0.0455,-0.2315
-3.6214,-3.0408,-6.0159,-10.7980,1.6976,-1.7854,-5.1073,-6.3284
-5.9057,-6.5045,-4.0748,-8.0766,-3.2495,-3.6790,-7.4099,-1.9286
-2.8855,-8.0902,-2.9627,-9.9420,-4.8500,-5.3471,-4.2863,-7.0801
-6.2574,-7.2562,-4.5132,-9.0854,-8.6228,-4.9832,-8.5462,-10.6662
-6.0194,-7.5592,-4.7589,-10.2027,-7.0106,-4.7776,-6.1588,-7.6256
-7.7584,-10.0160,-4.1348,-5.4807,-7.5423,-6.5937,-7.5297,-7.2485
-5.2923,-3.7916,-5.1663,-3.7367,-5.7116,-3.4382,-6.2493,-6.1293
-2.6901,-1.7407,-3.9593,-1.9105,-3.2061,-2.8149,-3.5206,-2.6914
-2.7494,-2.3016,-3.9496,-0.2878,0.5108,-1.1123,-3.4217,-0.9745
1.2939,1.5938,-2.2641,3.3912,1.3393,0.7108,0.1210,0.3691
1.2302,3.7075,0.1921,3.7563,2.9610,3.6194,1.0072,2.2546
2.5456,4.6930,1.8228,7.8801,1.5941,3.7258,0.6763,2.5005
2.2992,4.0651,0.1722,10.2110,1.8301,6.5650,3.5579,5.7149
5.6038,3.7389,-0.3188,9.7993,5.0249,1.0484,2.3922,0.5683
1.9798,3.9617,0.0008,6.9056,-0.1028,1.7772,1.7645,2.2095
-0.6467,4.6198,0.3155,7.7927,1.9827,-1.2954,-0.9137,0.9991
1.1097,2.3801,-3.4474,4.1342,-2.2021,-3.1415,2.1129,0.9457
-2.8288,-0.2346,-5.4177,5.4649,-2.7303,-2.7500,-0.0086,-2.5894
-1.2510,0.4285,-3.4051,3.6448,-1.4382,-2.8377,-0.6699,-4.7316
-4.7467,-5.8103,-4.8898,-1.5521,-0.8706,1.5988,-3.0735,-2.3801
-3.7956,-0.4205,-4.1756,-2.2264,-2.2626,-2.3726,-5.4698,-2.4542
-1.4001,-5.2593,-3.8964,-2.6299,-1.8407,-2.9536,-0.0877,-0.7827
-0.5396,-3.7216,-4.5650,-4.3364,-0.6413,-0.1479,-3.2696,-5.0835
-1.5365,-5.5031,-1.8964,-7.3002,0.2660,-3.3529,-4.5941,-1.7389
-2.3710,-6.5566,-3.7553,-6.3619,0.8932,-0.5817,-3.3144,-0.3885
-3.2784,-3.7484,-3.9058,-7.7915,-1.1434,-1.1257,-2.7859,-5.1032
-5.7711,-7.0021,-3.3982,-9.3264,-1.2615,-0.9979,-5.1593,-7.0611
-5.2591,-6.3191,-5.7777,-10.5459,-0.8210,-1.8181,-3.5853,-6.1136
-5.1726,-6.9515,-1.9102,-7.6091,-3.5083,-4.8356,-3.8282,-5.4317
-2.6797,-5.5273,-2.5677,-5.7847,-3.8221,-4.5155,-6.4040,-3.9438
-2.8988,-4.7132,0.0057,-7.3822,-5.9855,-4.8563,-4.4249,-4.3013
-4.5693,-4.5883,-0.7551,-5.3348,-6.2386,-3.9846,0.0898,0.9863
0.5693,1.5887,0.6636,-0.9578,0.4005,0.2828,-2.8024,-0.4053
1.8056,2.4370,6.4837,0.7574,2.1921,0.4239,3.9440,1.5594
3.6678,3.9144,8.0026,4.0861,4.0986,4.2488,4.8887,8.6950
7.5977,8.3195,7.9780,8.1556,7.3909,5.5329,8.8181,6.1210
9.6656,13.2686,9.4538,6.4511,8.3749,9.2900,10.9300,11.0721
10.2369,13.4950,13.2845,12.9065,10.6854,11.6959,11.8491,17.0630
7.5464,11.9778,10.0095,11.9027,8.7176,6.6361,11.6724,12.4827
7.6358,11.4010,13.8357,11.2803,6.2804,4.6212,10.1477,10.1123
7.4017,10.1809,9.0631,11.1689,7.1997,5.5272,13.8790,10.3551
6.9169,12.0649,10.0018,10.0678,3.5520,3.9012,11.4810,8.6036
3.2575,7.5992,6.9054,5.9052,3.0108,2.5489,5.0073,6.9914
2.3716,5.7374,6.5043,8.8179,0.2672,0.3139,7.2215,5.8417
-0.0946,4.8148,2.9224,4.5251,-0.7127,-0.0389,2.4891,1.5296
-1.0820,1.9462,1.6227,2.9164,0.1242,0.5492,1.6855,4.0230
1.2188,-0.3886,0.0614,1.4273,0.0192,1.5606,-0.0949,0.3677
1.3221,-1.8825,-3.3701,-3.7836,0.7218,-2.9305,-2.4813,-0.4015
-1.6729,-3.3768,-2.6274,-3.7529,-0.6650,-0.8154,-1.6125,-4.0305
-1.1448,-5.1482,-6.3693,-6.9770,-3.7379,-0.6626,-4.6595,-2.9187
-3.4338,-5.9348,-7.7413,-7.2318,-2.8701,-3.5979,-7.4652,-7.1360
-6.4213,-8.8719,-10.5357,-13.3150,-2.6869,-1.2809,-10.6367,-8.2635
-6.3627,-9.5644,-14.2576,-11.4514,-6.1606,-6.6676,-11.7816,-11.8408
-5.7926,-12.0460,-11.6583,-12.8017,-7.7703,-7.4627,-14.2555,-13.2888
-8.8590,-12.3828,-8.1747,-11.1453,-7.1089,-7.7544,-12.4824,-11.4685
-6.4930,-15.2170,-10.4195,-10.2240,-10.0617,-9.8807,-14.1815,-13.0519
-12.0487,-9.6430,-10.7871,-10.3765,-10.7797,-11.2353,-11.7766,-12.6590
-5.4473,-8.4419,-9.7254,-8.1144,-7.2666,-7.6686,-7.4777,-10.4977
-4.5526,-4.7522,-7.4042,-4.4612,-5.5970,-3.3266,-5.2360,-5.9865
-2.8318,-7.5220,-4.4362,-2.6394,-3.7837,-2.8397,-4.2166,-5.1118
0.0544,3.0383,-4.7655,2.9576,-0.0810,-1.0876,-1.3971,-1.4430
-1.0566,2.4544,0.8188,3.8627,3.0298,3.6811,4.1663,1.3691
3.0847,6.4907,2.0731,2.2964,3.6932,3.2109,4.1953,0.5382
4.8011,4.6830,3.5314,7.7056,4.7501,3.5243,4.2977,2.5828
6.6985,7.8002,4.1265,7.6244,6.8004,4.3045,3.3137,5.9572
3.4019,5.2587,4.0989,6.9653,2.7642,4.4347,6.0940,4.3976
2.3405,5.3649,5.3408,7.1788,2.6073,5.7624,6.3687,6.7098
2.0741,8.3607,5.2442,8.3329,0.3859,2.3906,3.5891,5.9868
3.5706,4.3286,3.7143,8.9383,-0.8258,2.1835,4.3764,5.0183
2.2867,4.1498,3.2147,5.9558,-0.6364,-0.5180,2.9256,6.2006
0.8526,4.4831,4.0379,2.9753,-0.1607,-0.9813,2.9019,3.0534
2.4653,3.3932,5.9982,2.8891,1.7976,1.3519,-0.7147,3.9904
1.9489,2.3692,1.5547,-0.2049,5.6200,2.2571,2.5434,1.9994
3.2602,2.0849,0.8575,-2.2945,1.7044,1.1607,4.0694,6.2939
0.5112,4.3342,2.8264,-4.7004,2.4188,2.7808,1.1690,5.0916
0.5061,-0.4077,2.0497,-7.2341,2.6390,3.3327,1.4024,1.3415
-0.4640,-1.2630,1.5416,-6.6587,2.4312,2.3781,-0.8597,0.8541
-3.1351,-1.2848,0.9522,-7.0135,0.8969,1.2580,-0.3609,1.1374
-1.5558,-2.3417,-0.3348,-8.1449,0.9261,-0.5636,-2.3248,-2.2207
-2.4338,-2.9658,1.8783,-8.8173,-5.9664,-3.0873,-4.1960,-3.7721
-3.1941,-3.9325,-2.7827,-9.1554,-6.7317,-3.9221,-1.0529,-1.7407
-3.3350,-6.0165,-1.2597,-5.6843,-3.9812,-5.0358,-1.2637,-2.5394
-4.2543,-0.5163,0.5766,-6.7923,-0.8536,0.1777,-2.4868,-1.3049
-1.3614,-2.7196,-0.6748,-1.3573,-3.3764,-1.0077,0.8244,-1.1737
0.5088,1.8172,2.7594,-1.4098,-3.5856,0.5886,2.9018,-0.4808
1.6531,2.6794,6.7475,1.6571,3.8569,1.6069,5.1416,4.5324
4.2338,5.9102,5.3306,3.0991,5.1656,9.2036,3.4650,7.3639
6.2274,8.1445,6.3351,6.6478,4.3472,4.3726,8.8086,6.9600
8.9500,9.0198,4.3167,10.3699,4.8501,5.6852,7.0082,10.0174
6.1806,9.2145,4.9780,10.4882,4.3332,6.4115,7.0919,6.5727
5.4703,10.2519,4.5341,11.2680,4.6517,5.3862,10.6122,5.0734
3.6756,7.1271,3.3968,9.9994,1.7510,4.1274,5.5639,5.0102
-0.6188,4.2926,4.2802,6.4155,1.4880,3.4583,2.6510,3.1066
0.6979,4.1613,1.5268,6.0078,-5.2839,-0.2427,-2.0462,2.4167
-0.4954,2.6126,-2.6672,3.4866,-3.5782,-3.8769,1.4989,-1.7482
2.0919,-2.7053,-2.2468,4.6486,-4.6881,-3.3844,-4.1990,-0.1290
-2.5940,-1.4204,-3.3581,-1.2117,-3.5358,-2.6896,-4.9939,-0.5384
-2.3230,-2.5179,-3.7427,-0.1499,-3.7295,0.1799,-5.0573,-4.6190
-3.2045,-5.1648,-4.3018,-2.1904,-1.3779,-4.6714,-3.3796,-3.6296
-5.3412,-3.8060,-9.3077,-2.7557,-5.1766,-0.5837,-5.2810,-8.0256
-2.4817,-7.3194,-10.0130,-7.9680,-2.5125,-2.3109,-7.6919,-5.8423
-3.8844,-8.2035,-11.5689,-7.9467,-2.4146,-1.9954,-8.0963,-6.9878
-4.7903,-9.9319,-10.7305,-6.9570,-1.5609,-4.4988,-10.5729,-8.3772
-8.3026,-10.7404,-10.0916,-12.2434,-6.3817,-6.9227,-10.4228,-10.6557
-5.5809,-13.0881,-9.3233,-13.9955,-6.3984,-5.7587,-11.1115,-15.6529
-10.0940,-13.6475,-10.4269,-14.2130,-10.3898,-6.7024,-9.7642,-12.1800
-6.7915,-8.3300,-9.7259,-9.2806,-11.3522,-6.3061,-8.9951,-11.3848
-3.3451,-10.3435,-7.3622,-11.3906,-5.6873,-6.9744,-8.0881,-10.2964
-6.3766,-8.0823,-6.6543,-6.6845,-5.2592,-6.1506,-6.9577,-6.2308
-3.4473,-6.7036,0.3246,-2.5387,-1.0585,-5.1645,-2.2646,-4.0058
0.1495,-0.9584,-2.4115,0.2778,-2.0601,1.2291,-0.1380,-1.2369
1.8427,1.4889,3.0868,3.8328,3.6062,3.4621,1.7544,1.7891
2.5648,9.0583,8.4370,6.4594,8.0541,3.8022,5.8092,5.3409
6.7337,10.5878,7.6001,10.4842,7.5840,6.1466,8.9558,10.5113
6.0784,9.6896,8.9611,8.9212,8.1791,7.0641,11.8112,9.4544
8.7016,14.8660,9.7768,10.3775,7.6969,5.4596,10.9421,10.4450
6.3060,12.9163,10.5337,10.5340,4.5287,5.6585,9.4077,10.5365
9.2634,10.2765,12.8504,12.5622,7.6924,3.9583,10.7174,11.1408
4.8019,5.9232,7.0617,11.7300,3.4295,3.7271,9.8425,10.3567
4.5292,11.8283,11.9826,9.6920,4.0088,2.1441,8.8375,3.9917
5.4162,5.0100,6.6607,9.1288,0.2362,0.1403,8.8349,8.9876
1.7418,3.4015,7.3851,3.7331,0.6184,5.4215,7.9692,8.5954
3.4936,6.2524,6.0287,6.0306,4.7273,4.4535,4.6129,3.9289
4.7360,7.2293,6.3357,3.7753,2.4015,1.7539,3.6361,3.1018
-0.1057,4.3930,1.7082,0.5200,5.3312,3.5600,1.9285,2.8134
1.8799,1.7097,3.3098,0.0200,2.8816,3.6252,3.2294,1.0472
0.9756,0.0637,4.0365,-7.1418,-0.4700,4.0795,2.7590,0.9217
0.4350,-1.4351,-2.7350,-7.2906,2.3400,-0.2260,-1.7344,-4.1815
-4.1148,-3.5204,-2.0731,-9.1740,-1.6317,0.8913,-3.5926,-4.9073
-5.7680,-6.0250,-4.8664,-8.1339,-1.6424,-3.5123,-2.9109,-2.8023
-4.3011,-7.6750,-4.4580,-11.3756,-4.4481,-6.4897,-5.8971,-8.0477
-5.4733,-8.6756,-5.8738,-8.5785,-8.1025,-4.7016,-6.9743,-5.7635
-5.7449,-9.6687,-7.1692,-6.8511,-6.0820,-4.3923,-9.6491,-7.3297
-5.1016,-8.0724,-5.2572,-6.3571,-2.6882,-2.1007,-6.2806,-10.0126
-5.4957,-8.5458,-2.5928,-4.8737,-4.0606,-6.5997,-7.4001,-5.0534
-2.5081,-3.9583,-4.5416,-4.2676,-3.0864,-1.9517,-5.8792,-4.3547
-0.5833,-2.8461,-1.9435,-1.3638,0.6872,-1.5405,-2.6158,-2.7789
-0.3411,-0.6553,-3.7299,4.3958,1.3439,2.2029,-0.9564,0.2897
4.9299,3.2363,-2.1662,5.9857,2.8138,0.2938,1.2470,2.2914
3.6939,6.3900,0.7256,6.5382,1.6000,1.3432,0.4956,3.7185
1.4148,6.2680,2.6075,7.1099,3.5020,1.9875,4.4899,4.8191
3.8103,2.3906,0.8899,5.1546,3.8800,2.4452,4.4787,3.3993
0.5380,2.5156,-0.4696,6.3937,-0.2541,0.0384,-0.9210,-0.0635
2.1205,4.2719,-0.5873,10.1177,1.6351,0.4870,2.3692,0.1911
1.6137,0.0909,-3.1572,4.1532,-1.9751,-0.2972,-1.4900,4.1404
-2.2286,-0.0157,-1.0666,4.8906,-4.0654,-1.8344,-0.0382,-0.2369
-0.1193,0.0960,-1.2558,4.4800,-1.5473,-0.6156,-2.2188,1.4378
-1.1880,-2.9900,-3.7369,-0.6298,-3.2087,-2.1547,-2.5721,-0.5222
-0.5702,-1.9856,-4.1184,-0.2066,-0.9571,-3.9217,-3.1537,-2.5133
1.1498,-4.6507,-3.2759,-0.7984,-1.6960,0.7867,-1.1989,-2.5649
-2.0153,-4.0800,-4.5402,-3.8663,-0.6472,-1.4652,-5.0374,-3.2329
-2.9242,-3.3440,-4.1743,-1.1834,0.4994,1.1247,-2.5592,-6.0776
-3.5318,-7.0041,-1.0958,-9.4483,-0.0074,1.9169,-2.2876,-3.9125
-4.0504,-4.8289,-4.7271,-6.5807,-4.1430,-0.4647,-3.4621,-2.7206
-3.6689,-6.3300,-4.8690,-9.2942,-3.8717,-4.4341,-1.6376,-6.0241
-3.6676,-6.0101,-5.0408,-8.2543,-1.8844,-4.6559,-6.2966,-4.8852
-4.0666,-6.5452,-2.3525,-8.5202,-4.2785,-2.0962,-4.0168,-4.1754
-3.0246,-4.1967,-2.7259,-9.3675,-5.0752,-4.5433,-4.9486,-6.1540
-3.3947,-4.6406,-1.9741,-6.3134,-5.7450,-3.5877,-1.5641,-4.0912
0.2556,-3.3079,2.8347,-7.2034,-3.9122,-1.1543,-1.3581,-2.8734
-0.3138,0.2777,5.1237,-0.7897,-3.2148,0.8624,0.6847,0.0332
6.4635,3.9925,4.3562,1.7416,2.1824,2.7525,6.1273,2.2368
5.6217,6.3225,4.6381,5.2531,3.9731,4.5578,6.2976,5.6843
5.3944,9.0225,10.8424,8.6333,5.5758,6.5566,7.4138,11.6621
6.5128,9.9645,9.7313,9.8665,8.3633,9.7523,10.6030,10.0050
9.5637,11.2253,12.7823,11.1512,9.5397,9.8241,13.3150,12.5762
8.4701,10.3969,8.8385,10.4721,11.7283,8.2025,14.5888,11.7465
9.1706,14.5493,12.7106,10.8292,5.1329,9.0239,11.9601,13.5617
7.6146,8.7975,8.5973,13.0829,7.4536,5.5209,12.4185,12.4079
5.3444,7.9104,10.1404,12.2787,5.3373,2.6002,6.6426,9.9759
2.7061,5.9487,7.4198,8.1448,1.0523,1.0825,6.0855,7.2096
0.3778,6.4347,4.1686,6.6445,1.2882,-0.4848,4.4155,4.5017
0.8951,2.8269,3.1281,3.1061,-0.4244,-0.1466,2.9164,1.3004
1.9969,3.4596,2.8963,4.0110,0.2765,1.8485,1.6179,4.4070
0.3211,-1.0102,0.1588,0.9981,2.2637,-1.2076,1.0364,-1.1395
-2.5809,-1.1695,-0.9902,0.6600,0.9105,0.2848,-2.1589,-0.4963
-1.3051,-4.5224,-0.7740,-5.7806,0.5009,-1.2471,-2.8797,-1.4989
-2.0721,-1.8746,-7.9459,-7.1425,-1.6288,-1.3738,-4.9160,-5.6812
-5.3021,-8.8077,-4.9725,-8.1548,-4.4470,-4.4860,-8.1392,-5.1934
-5.2230,-8.4851,-8.8877,-9.1544,-4.1904,-4.2085,-8.8503,-7.5335
-6.8175,-9.7127,-11.7623,-11.6263,-3.9046,-6.0051,-10.6567,-7.8492
-9.8141,-11.3042,-13.3672,-13.2069,-9.6915,-6.5903,-12.0411,-12.4975
-8.2686,-12.7787,-12.0773,-10.4715,-10.1711,-8.2536,-12.4531,-14.4296
-7.9988,-12.4144,-10.2139,-9.8474,-8.8043,-10.7913,-12.2730,-13.1447
-6.4945,-10.9517,-10.9496,-10.6895,-9.9425,-6.8392,-12.0267,-11.0650
-5.0995,-9.1821,-7.0644,-5.0130,-8.2144,-6.7102,-7.6238,-9.4456
-6.7497,-4.8034,-9.6147,-2.5399,-5.5062,-4.5732,-8.7891,-7.6251
-3.7900,0.1382,-5.2750,-1.0929,-4.3827,-2.3481,-5.2497,-7.0320
0.6894,-0.9305,-4.8728,1.8140,-1.2791,-0.5946,2.9035,-0.5607
2.6954,0.6091,-0.3073,5.2476,3.3477,2.6193,-0.2105,4.3050
4.1868,4.6960,2.3303,5.3643,1.7461,4.4205,1.3836,4.1106
10.0445,10.1124,1.8230,8.3129,1.8928,1.6692,5.8912,5.7031
5.3380,5.6756,-0.4375,5.9536,3.1352,3.2721,2.3371,6.3114
5.8827,9.2975,4.3679,10.7269,4.3765,2.8961,5.1502,6.0987
4.9843,8.8171,4.9866,6.6927,1.8944,2.5741,8.3434,6.5222
3.8038,4.6592,4.9630,10.4239,0.4529,2.9397,2.2192,5.1296
1.7246,5.4681,6.0991,6.4502,0.5103,-0.7139,0.9666,3.4706
2.9320,6.2662,2.4686,5.1685,-2.3776,-0.5060,1.2221,2.2769
0.4880,2.6093,4.9054,2.9435,1.2995,-0.2113,4.5255,2.8045
1.3402,2.3443,5.4635,1.7732,1.8335,0.0561,4.7042,3.4883
1.0752,1.2711,0.7455,2.6115,1.4824,1.5756,2.1071,2.4019
1.9300,0.0153,3.5382,-4.9843,4.2874,3.9347,3.6401,3.0868
5.0363,-0.2448,1.8230,-1.0534,1.3525,1.4630,4.2015,2.7748
-1.8033,-2.1572,1.8511,-4.0993,4.4256,3.3754,4.0047,2.5734
1.1535,-1.5135,1.8031,-7.8844,2.0693,-0.7153,-0.0953,2.1984
-3.3589,-4.0157,-0.1446,-8.8635,-0.0032,-0.3404,-4.3538,-0.7845
-2.7079,-3.6493,-1.0136,-5.4854,-1.0298,-1.4942,-3.2313,-3.9617
-1.1920,-7.0802,-0.3053,-9.6116,-2.4877,0.1855,-3.4273,-3.3048
-3.1053,-4.3942,-2.0122,-9.4668,-1.3208,-3.5635,-3.4401,-2.9856
-4.5998,-3.0517,-1.6457,-4.8907,-4.8524,-6.5393,-2.9389,-5.4107
-3.2042,-5.9570,1.7506,-4.3088,-3.6433,-5.4978,0.0989,0.5036
0.2890,-0.4390,0.0668,-3.9283,0.5266,-0.9768,1.9894,0.2913
-0.0726,3.2048,4.0226,0.4185,0.0325,1.8465,1.8382,2.6677
3.1812,1.9964,4.9492,1.2472,4.3509,3.5633,5.8259,6.2265
4.5440,8.5153,2.7106,6.9505,7.3493,5.0515,6.5429,5.0612
4.6439,8.2799,4.9727,8.9920,5.3799,7.7259,7.3954,8.1597
9.3366,7.4802,7.9981,9.7049,7.3505,5.5191,9.2225,7.6979
6.8696,8.4980,4.4308,10.2573,4.0572,7.1302,7.7370,7.3525
2.0463,8.6688,4.4002,12.4421,5.6180,2.0379,9.7421,5.4971
4.0670,6.5608,4.5665,9.2157,2.9896,1.3330,2.9535,7.6095
1.2667,5.4669,3.5328,6.2982,1.4564,-1.9637,2.4577,2.6672
2.0164,1.3342,0.3129,7.1782,-1.9703,-1.4142,1.0720,2.3110
-1.7746,1.0825,-1.8963,7.7859,-4.7845,-2.3623,0.0734,-3.3983
-1.7751,-2.9844,-0.4830,1.1306,-2.2441,-2.8278,-0.2792,-0.4112
-1.5480,-2.4834,-1.4970,0.0412,-6.2464,-3.0585,-3.5254,-1.9104
-1.4767,-4.9255,-3.9846,-0.8658,-3.3984,-4.3137,-6.6936,-4.4141
-4.9529,-5.8218,-6.5446,-3.6106,-1.1629,-2.8600,-4.2404,-5.8446
-4.0899,-4.0155,-8.9975,-6.9736,-2.0997,-4.6337,-5.3084,-5.8408
-4.9084,-5.4573,-10.0423,-5.6707,0.3417,-0.5359,-10.3679,-4.0219
-5.9922,-7.4782,-8.8987,-5.5351,-1.7144,-3.7075,-8.5644,-11.2036
-3.3286,-11.3108,-9.7519,-10.0853,-5.3267,-5.0792,-12.0576,-8.4993
-6.3310,-11.2384,-8.6887,-12.6730,-5.6181,-3.2756,-11.6293,-11.9997
-9.5765,-9.6241,-9.8286,-14.0164,-6.9561,-8.7484,-12.5757,-11.2514
-6.6144,-11.2748,-12.5676,-11.0060,-10.0573,-9.3724,-10.0035,-11.5892
-4.4886,-7.2428,-7.6682,-8.6939,-9.1748,-9.4086,-10.2707,-11.0884
-5.0821,-8.4831,-9.0870,-7.8531,-7.7956,-7.0563,-10.7574,-8.8448
-7.1698,-6.3072,-5.9775,-6.1296,-8.3052,-4.6034,-5.0940,-8.1154
-3.3242,-3.9372,-2.4344,-4.0786,-2.7551,-1.7168,-5.5280,-1.8335
1.9004,0.2003,2.9935,-1.6382,-0.3736,3.8580,0.4952,-2.6912
1.5364,3.2449,7.4745,4.4468,0.3170,-0.5478,2.1563,4.1870
5.5565,7.6574,6.3116,7.4967,5.8572,6.1640,5.8656,5.9243
7.7928,10.5081,7.3151,6.2473,8.0283,6.1188,9.5855,7.0727
6.2814,9.5428,10.0479,12.7345,8.1048,6.8846,11.2281,10.7495
7.9019,9.4905,11.6445,12.2541,7.1979,6.7544,13.2228,8.8820
2.8232,8.6894,10.3233,13.7924,7.7722,5.5219,11.0981,11.2811
5.4019,11.5257,13.4840,9.3037,6.6794,8.1858,11.0920,8.4980
5.5980,8.0173,10.7246,8.3307,4.8069,5.6093,9.0157,10.3642
3.1406,5.1626,10.4291,8.7917,2.0152,3.2869,8.8317,7.1722
6.6446,7.6772,9.7956,8.1077,2.9957,4.6073,8.1143,6.7786
1.4429,9.6091,8.4175,8.1947,4.1808,0.1188,6.2934,6.8818
2.4924,4.7094,7.9310,4.5889,1.6797,0.5786,2.7986,4.3454
2.9714,4.8274,4.5270,1.1264,6.0693,-0.3445,5.0575,4.4733
4.4674,2.4393,3.2679,-2.1230,2.3629,2.1022,4.0356,1.2180
-0.5508,0.7155,0.9663,-0.8077,3.0476,3.2415,1.1609,3.1275
2.3305,0.5502,1.6593,-6.1039,1.2842,2.4472,-1.3408,3.2332
-0.7224,-3.1506,0.4782,-4.0613,1.3369,1.2260,0.9521,2.9266
-3.7316,-4.2577,-1.6710,-8.4976,-3.3602,-2.8634,-2.4933,-3.0937
-3.0941,-5.9642,-1.3617,-6.8303,-3.5095,-1.4857,-5.4547,-3.9288
-4.7854,-8.8334,-5.1052,-8.7820,-6.1241,-4.1265,-8.3610,-9.3264
-6.8191,-7.0936,-4.8994,-9.9203,-5.5848,-4.6882,-8.8613,-5.3745
-6.0160,-8.8002,-7.8445,-9.6860,-4.8368,-9.1676,-5.9088,-6.6984
-6.1993,-8.7850,-6.5697,-7.9113,-5.0135,-5.5153,-7.0922,-8.0246
-4.3054,-5.2016,-4.2560,-4.6568,-8.3576,-6.5818,-6.8323,-4.1506
-1.8633,-5.1585,-2.9816,-2.6701,0.0630,-3.5961,-3.4137,-4.5599
1.3561,-1.3210,-3.4641,-0.9842,-0.4829,-0.1243,-3.3173,-2.7827
-1.1263,0.9864,-1.8974,2.2729,-0.1369,1.1645,2.1735,0.6353
5.3308,4.5953,-3.0083,4.9345,2.7352,1.2222,3.6086,-0.0156
0.0550,5.0141,-0.5186,3.4036,3.5017,3.2468,1.9572,4.1895
2.9740,4.8530,1.7169,8.4241,2.1510,0.8540,2.1087,1.4677
3.7079,5.9730,1.2193,6.7238,2.6237,4.0522,-1.1401,1.2120
2.4215,6.0853,0.7510,6.2700,0.0888,0.6921,-0.2224,0.6355
0.0058,3.6975,-0.5116,4.7195,-1.1081,1.1762,-1.1077,2.0408
-0.4363,1.5802,-1.2710,3.3830,-2.8670,-2.6273,-0.0714,-1.1994
-1.7371,-1.6465,-2.9639,2.5732,-4.8827,-3.5191,-1.8130,-3.3457
-2.4484,-2.3267,-1.5310,1.9054,-2.8250,-4.1900,-4.1341,-3.0246
-0.5328,-1.9953,-2.4273,4.1825,-1.9005,-1.4642,-3.0371,-2.6634
-1.2678,-3.0579,-2.6753,-1.2725,-1.3241,-3.1605,-2.1180,-4.6475
-2.7348,-2.9301,-4.4638,-1.9386,-0.0285,-0.2915,-2.2253,-4.7446
-0.2979,-3.0930,-7.1151,-3.2844,-0.0710,-1.1311,-6.0275,-0.0110
-1.3326,-3.0291,-2.4294,-5.2894,-1.0400,-3.2049,-3.6633,-4.7618
-0.9782,-4.7203,-4.9636,-7.0615,0.8158,-1.2992,-6.0146,-4.4242
-1.8823,-4.7599,-5.6507,-9.9617,-3.1860,-2.9184,-3.1840,-5.0874
-4.7968,-6.2038,-3.2913,-6.8586,-3.5408,-2.1390,-3.9485,-5.7567
-5.0196,-9.8020,-4.6575,-6.7014,-4.7249,-5.0642,-6.8502,-4.5711
-3.3607,-8.2901,-1.8789,-11.7062,-2.4602,-2.6913,-6.6018,-4.0305
-3.3498,-6.4590,-1.5286,-9.8039,-2.8754,-4.4262,-5.4813,-5.2484
-3.4456,-6.6430,0.0254,-7.0766,-2.9761,-3.9735,-6.7934,-5.2689
-1.7487,-1.7639,-1.1962,-5.8633,-0.6847,-1.3087,-0.8426,0.5651
1.9997,2.3904,4.8122,-0.9356,-1.5010,1.2638,0.8572,1.1235
1.4959,5.0057,5.6487,0.2020,2.8572,2.3042,5.6235,6.7637
5.5038,5.9291,6.8840,7.5427,4.6830,3.7140,5.3873,3.6665
6.3769,11.1977,9.5462,8.8320,8.2960,4.3647,8.6042,9.8260
7.7926,11.2405,8.0939,9.6339,8.2926,7.4364,9.1185,14.2562
10.4882,11.7140,12.2094,12.4696,8.4163,8.0679,10.8801,11.8566
10.0434,11.5807,10.2496,13.4525,9.3998,8.7491,10.7278,12.1625
9.3199,11.4712,9.3427,11.0516,8.7150,6.8830,13.2874,12.2367
8.8630,10.0811,8.1305,10.0785,4.7120,6.7464,9.3938,9.6030
5.4851,9.2054,10.7133,10.2414,3.7861,2.9582,8.8661,8.2117
4.9992,7.2671,6.4545,9.7944,0.6333,2.1354,6.1792,6.2437
2.1847,5.0969,7.9001,6.7841,-2.7637,2.7593,2.9441,3.9072
2.0511,3.9248,2.9349,2.0976,0.5627,0.7748,2.8358,4.9315
0.5171,3.3739,-0.6942,1.0476,0.9113,-0.0921,2.3904,2.1833
0.1455,1.4243,-1.6748,-0.1110,0.3931,-0.9029,-1.8116,0.3759
0.1804,-3.8153,-0.0131,-2.3654,-2.9223,-0.9478,-0.2781,-0.2789
-2.7922,-7.1003,-3.9725,-1.5043,-0.7883,-1.5380,-4.3628,-3.4848
0.4885,-3.6908,-6.4219,-8.6545,-4.3109,-1.7949,-5.5728,-6.0096
-5.4853,-9.0766,-7.1583,-7.7436,-0.1664,-1.0875,-5.9544,-7.6543
-7.2749,-9.2869,-8.2916,-7.8905,-5.5068,-4.2105,-9.6750,-8.6771
-5.1676,-12.4185,-8.7380,-7.8956,-3.8314,-7.7392,-10.3848,-12.0300
-6.9121,-14.6279,-9.1990,-12.5041,-5.9819,-4.7485,-12.2655,-12.5438
-7.8691,-11.6886,-12.3333,-11.0565,-9.9394,-8.1085,-12.3067,-13.2749
-7.8975,-11.0809,-13.5854,-10.0744,-10.6929,-11.1042,-15.9576,-9.1997
-8.1375,-11.8822,-11.3785,-9.0219,-7.9399,-9.1283,-14.1228,-15.5390
-8.0261,-12.8482,-8.9407,-7.1944,-8.2921,-6.8593,-8.6089,-9.8023
-4.5695,-7.0686,-8.8836,-3.6412,-4.7170,-2.3139,-5.4792,-4.4464
-3.3990,-2.5899,-6.6926,-5.0928,-3.0586,-3.9965,-5.5339,-3.9854
1.3795,-2.3126,-2.4786,2.7177,-2.4897,1.6461,-1.6325,-0.1363
1.7041,2.9389,-0.9257,4.6058,-1.0531,4.3918,1.7886,1.4963
2.1760,4.8055,1.0492,6.3231,4.0471,2.7641,4.4540,2.4132
3.7833,7.1118,1.3164,11.3381,3.4472,3.8733,1.7479,1.4266
5.1010,7.0604,3.1232,8.1698,3.2506,2.5258,4.1237,5.7609
3.3338,5.3792,2.6831,8.8076,4.3224,2.9734,5.0043,4.3397
2.3200,8.0954,5.6668,12.0223,3.9500,2.1349,6.1794,3.9242
3.1923,5.2518,5.9094,6.9207,0.7409,2.1392,8.2842,3.7881
2.5650,4.5736,1.4761,6.1202,-0.0672,2.0790,3.5976,6.5569
1.0331,2.4237,2.6809,5.2655,0.9911,-0.8812,1.3604,7.0782
0.9407,2.5131,1.6403,5.1462,-1.4779,-2.3935,3.7814,3.5038
2.0435,1.3225,2.6997,2.5169,1.5931,1.2265,4.9986,2.3199
-0.3689,1.8842,3.2882,-1.4552,2.9242,2.5367,3.0380,1.1102
-0.3040,4.1050,0.8843,-2.0509,3.7988,3.1526,1.2553,3.3181
0.4867,-1.3288,1.1965,-3.8799,0.1386,2.5538,3.5531,4.7905
0.6774,-2.7416,0.4675,-4.7222,1.5917,2.9208,2.3190,0.9526
0.5905,0.6421,1.5925,-5.4351,0.5201,4.1107,-1.2649,-3.2943
1.2732,-3.1747,0.6903,-6.6233,0.6514,1.0742,-0.3294,0.1035
-0.7135,-5.0036,-1.0826,-10.6640,-0.2789,-1.5601,-0.5041,-0.5219
-3.0653,-3.1865,-0.0913,-6.5974,-0.0817,-3.0771,-1.0143,-5.1659
-3.2302,-5.7990,-1.2014,-7.3579,-3.8937,-3.4061,-3.1514,-2.7870
-4.4870,-1.5630,-0.4244,-4.5199,-3.9837,-0.7823,-3.1942,-1.9802
-2.1590,-1.9496,3.2417,-4.1503,-0.7750,-2.7745,0.2615,-1.6891
-1.1634,-1.7320,3.8007,-0.8694,-0.5830,-1.0576,-1.7375,-1.1084
1.5070,4.5992,1.0738,0.7933,2.8273,0.2024,2.7535,3.6196
1.6157,2.9023,5.4999,4.8051,3.4332,4.6486,2.1232,3.5731
5.2547,7.1196,6.5164,6.0827,3.0644,7.7399,7.6045,3.7786
7.9204,8.1003,4.2666,7.2530,3.9829,6.6585,6.9116,4.2245
5.9575,10.4903,7.4351,12.3156,4.0012,6.4526,9.7656,9.7540
6.5213,10.9239,8.2094,11.0483,6.7809,5.8430,8.3657,8.5536
6.1192,7.8793,3.4130,10.6610,6.2688,0.9095,4.8206,6.7874
3.1854,5.3166,2.4972,7.3017,5.4645,3.8082,7.2480,4.4507
2.5955,5.3488,3.8842,6.1386,2.0115,0.9481,5.5573,2.4370
0.7566,1.6986,1.0975,6.9430,0.7423,-0.3594,2.5852,-0.3518
-0.4393,3.8485,-0.1728,4.8751,-3.1629,-3.3601,-1.7282,-1.2330
-2.7625,-0.6590,-2.1057,1.7315,-4.7336,-3.5757,-2.6402,-5.3613
-2.2687,-2.8645,-3.5193,0.7949,-1.8762,-3.7679,-3.2706,-4.5928
-2.0283,-3.2926,-7.4426,0.8925,-2.2959,-1.3900,-5.6158,-5.0267
-0.9757,-6.7392,-5.1016,-2.4867,-2.4135,-3.1428,-2.9657,-4.5894
-2.1492,-7.3270,-6.0307,-7.2116,-1.8065,0.7364,-6.2244,-6.5007
-0.9662,-5.2937,-9.1408,-7.5208,-2.0960,-1.9345,-11.5101,-6.2627
-6.1633,-9.3772,-9.7477,-10.2226,-1.3264,-5.1656,-8.0497,-6.5350
-4.6683,-11.2427,-12.6761,-10.9610,-2.4034,-4.5387,-10.1946,-8.0851
-6.6635,-9.9588,-10.0198,-11.9374,-4.8427,-6.6366,-10.7447,-9.9265
-4.4004,-9.6651,-9.9462,-12.4094,-5.6163,-10.1766,-11.7745,-11.2037
-9.2036,-10.4089,-10.4063,-13.2757,-6.9129,-5.2848,-10.0068,-12.6886
-8.9314,-9.2277,-7.5596,-10.5412,-8.4560,-6.7095,-8.7664,-9.3360
-7.5299,-10.2083,-8.0910,-9.4068,-5.8196,-6.1546,-8.4045,-6.3094
-8.0766,-8.7280,-4.5546,-10.5202,-7.3426,-5.0027,-6.9231,-5.9010
-3.3865,-1.2216,-4.3392,-0.1152,-1.2455,-4.8993,-3.4393,-0.5014
-1.1387,-0.4840,-0.0353,1.6332,-1.7918,-0.7254,0.0294,-2.2884
2.8235,3.0973,2.5481,2.6302,3.2550,4.0890,2.1737,1.6461
5.4034,8.5875,5.7395,6.1542,3.9831,3.6740,7.2825,7.6969
9.4451,9.9074,7.0356,6.8084,7.7845,3.1568,9.5191,9.2255
9.0975,11.4056,9.0489,12.8933,7.7133,7.4236,12.7566,12.4166
7.1258,14.7349,11.5521,14.2389,5.2919,7.4714,13.1004,11.1942
6.3375,10.4784,10.1491,11.9280,7.5161,7.0884,10.1930,9.9196
7.6764,12.1555,8.3813,12.8522,4.7922,6.7518,11.8628,10.3119
3.9965,9.7579,13.0038,10.6424,5.6676,5.3022,8.2459,7.3733
7.7594,8.7948,11.7547,7.0101,3.2541,3.6403,9.6026,6.8658
5.9651,9.3870,6.8583,6.7358,3.1739,4.3741,6.6802,8.9138
2.8844,6.6314,8.8197,5.6980,0.9512,0.1091,4.9060,7.7500
0.5827,5.5259,5.9181,2.8480,1.6907,3.3315,5.9243,6.0487
4.8061,5.1784,5.8481,1.1624,2.2345,3.8622,0.5484,1.9787
2.1337,1.7691,4.5467,-0.7205,4.4364,1.2920,0.8623,2.9511
3.4597,-0.3950,2.2649,-2.7740,5.5150,0.7447,1.9149,0.3437
-1.8059,-2.3956,-0.1756,-4.5785,1.0851,1.1740,0.7094,2.3506
-1.6368,-5.6647,-1.7261,-8.0949,2.6172,0.0096,-1.8157,-2.1373
-2.2515,-1.5745,-3.7320,-9.1466,-4.0014,0.3833,-5.5996,-4.8591
-3.7168,-8.1016,-5.1211,-11.1430,-4.4817,-3.6123,-6.3379,-5.0664
-5.7591,-8.1632,-5.1976,-8.3336,-5.9241,-5.7704,-6.0686,-7.6156
-4.9845,-8.9969,-6.9762,-12.8732,-7.8165,-6.7052,-6.7559,-5.4030
-7.7221,-8.0766,-5.1839,-7.1765,-8.7038,-4.6505,-7.8871,-8.9649
-5.8349,-6.4278,-3.7581,-5.3204,-5.3631,-5.9630,-5.5634,-9.3975
-4.2952,-4.7157,-6.1694,-5.7526,-5.1212,-5.0690,-5.4103,-9.2358
-2.0849,-4.6854,-3.8962,-6.6905,-2.4310,-3.1651,-5.2994,-4.2244
0.0445,-1.6139,-2.2736,-0.6355,0.1099,1.0123,-2.5164,-2.9386
-0.9566,1.4240,-1.0820,2.4251,1.4263,-0.0959,-2.1820,-2.2211
-0.1700,2.5934,-0.6176,3.3007,3.4862,4.4728,1.4172,3.3632
4.8997,6.7130,1.1310,5.8239,3.1331,3.5531,4.3252,3.6579
3.7002,5.6270,1.1047,10.0321,1.3708,2.9106,4.0796,3.0094
1.7027,5.8487,-1.5000,9.1907,3.9135,6.0781,4.8901,4.8336
4.3267,4.9943,1.3037,6.6132,0.1163,-0.5835,1.5457,2.9938
1.1133,4.6210,0.7447,4.8542,-1.9050,-1.0321,2.9207,-0.3327
1.6448,1.8362,-2.4265,5.5833,-2.1044,-3.6862,-0.5641,-1.8330
-0.8963,-1.6240,-1.9165,4.2862,-4.1029,-1.3050,0.8837,-0.0967
1.5268,-0.1295,-1.5543,3.7132,-3.6699,-0.5100,-2.1489,-1.5216
0.8258,-2.5145,-3.3727,0.4496,-2.2624,-0.2736,-1.5545,-2.3607
-2.1767,-2.9365,-1.8039,0.2835,-1.5739,-0.2605,-0.6634,-4.1458
-0.2380,-1.7701,-0.1289,0.6975,-2.6051,-1.5548,-3.3072,-2.1051
-0.6792,-1.3206,-5.0641,-2.6618,-1.2890,-1.1053,-2.8504,-4.3112
0.2594,-3.7917,-6.1467,-5.5581,1.3706,-2.7477,-1.5376,-3.6239
-3.6449,-4.1513,-3.7897,-7.2201,0.3009,2.6101,-4.1391,-1.7692
-1.7976,-2.9363,-3.2742,-8.7038,1.9629,-0.4463,-6.5179,-5.5278
-1.9657,-5.9394,-4.6778,-7.2640,-0.4196,-2.9278,-1.9102,-7.4842
-6.8175,-2.9363,-1.8896,-10.3532,-1.5621,-1.2865,-6.2078,-7.0820
-6.2565,-6.0328,-5.4767,-9.1143,-6.1621,-5.5394,-5.2146,-3.9613
-7.3242,-8.8840,-1.4147,-8.1910,-3.1438,-3.6796,-3.0554,-4.4073
-3.8183,-3.6984,-1.9088,-7.4095,-3.7868,-3.9661,-4.3270,-3.6075
-0.8484,-2.0921,3.4318,-6.4752,-3.1190,-1.3345,-2.8583,-2.1102
2.3367,2.0289,5.9830,-1.2101,0.0699,-0.2774,1.6471,1.9945
2.4944,4.1874,4.1069,1.2029,3.7521,0.1579,1.4786,2.8946
7.1261,6.0415,6.6136,5.0455,5.6220,4.9841,6.6031,7.4934
4.6100,7.1252,10.6205,6.2458,5.7079,8.5989,9.9004,8.4360
5.5640,10.7039,10.1776,11.1463,9.5792,8.4217,10.9733,10.0318
8.7567,10.9439,11.5283,9.6139,8.0374,10.1564,10.0713,11.4303
9.3813,11.6300,11.8317,14.3617,8.9135,7.0202,14.8920,11.9377
8.0506,12.8078,8.4922,9.2761,6.9457,7.3614,11.9488,11.7202
3.8036,13.1682,10.3933,11.9549,5.3862,4.7777,12.5879,10.7943
5.3199,9.5418,8.0096,10.8373,5.0270,4.9981,8.2898,3.1473
2.0196,5.2325,6.6587,7.3086,0.6607,2.2682,5.4304,5.5389
3.6546,5.7592,7.7649,7.2121,3.9011,2.0185,5.2521,4.2610
2.1148,5.0643,1.8539,6.3823,-2.4696,1.8936,2.7646,5.3459
-0.6975,0.6733,3.0867,-1.0734,-0.8986,1.0353,-0.2749,-0.1283
-0.7708,-0.2010,-0.4184,0.7541,0.5553,0.4097,2.2047,0.2442
-2.3011,-1.5659,-2.2865,-5.9918,0.8785,-1.4952,-2.4251,0.7508
-1.6589,-4.4467,-2.5531,-5.9116,-0.4127,-0.2662,-5.8487,-5.0577
-1.2174,-4.1199,-5.0894,-4.1318,-1.0694,-1.7830,-2.8561,-4.2574
-5.4549,-7.2077,-6.5424,-9.3746,-1.6051,-2.7370,-7.5068,-7.9538
-4.6975,-8.3205,-7.5919,-11.8850,-4.2243,-4.4395,-9.5916,-9.4368
-7.7002,-11.9946,-10.9110,-11.5997,-3.6247,-7.1844,-13.0892,-11.6458
-9.2889,-12.5811,-12.2901,-8.7956,-6.1417,-10.3368,-9.1820,-12.8912
-8.9658,-11.4172,-13.4214,-14.5412,-7.2792,-9.5907,-14.4350,-8.4179
-10.3929,-12.7789,-12.8345,-12.5060,-10.4430,-8.7037,-12.2988,-11.1198
-8.9496,-8.4270,-6.3346,-7.0689,-8.5846,-10.4877,-10.0093,-9.7256
-8.4770,-9.5611,-7.4641,-4.2596,-7.4763,-7.0021,-8.9003,-8.7949
-1.7361,-5.9122,-9.4645,-4.4503,-6.3792,-2.0204,-7.1244,-9.4443
-2.3304,-1.7787,-7.2405,-3.1530,-1.7941,-0.7997,-6.7207,-3.5758
-1.1328,-2.2218,-2.2715,4.8383,-0.6244,2.6474,-2.4811,0.3429
2.2457,0.0226,-0.0318,6.8082,3.2757,2.8792,1.6282,0.0664
3.2457,2.5399,1.8233,7.6753,2.1018,5.4584,2.2335,4.8622
3.9339,8.1368,2.0717,7.0492,6.8681,3.2036,5.0945,5.8460
5.4029,6.0533,3.2807,9.1086,2.7358,3.1138,6.4754,8.2308
5.3156,10.6761,4.5613,9.1717,3.6075,-0.8301,6.9469,4.8765
2.7575,5.4542,4.4603,9.5313,3.3776,3.9690,3.2854,3.4783
1.9630,5.7664,1.0276,10.3452,0.2938,3.4602,7.8315,3.9941
1.7850,6.9277,3.9007,8.2645,1.7224,-0.3860,5.0908,6.0929
-1.6593,6.8328,2.7980,3.8699,-1.6029,-0.1400,3.4683,0.7283
-0.6255,6.2702,4.1479,5.9498,2.7356,-0.5733,4.8123,0.0754
3.7457,4.4622,8.1526,2.6749,1.2796,1.8324,6.5652,3.1512
4.2707,3.6797,3.9646,1.5143,1.2018,3.7838,0.7179,2.2121
1.4336,2.4263,2.5885,0.9472,2.3297,0.1643,2.2774,2.6269
2.4292,1.8966,3.9620,-4.6363,4.2571,3.6579,-1.4515,3.5341
1.4645,-1.1481,2.6974,-4.6601,1.8570,2.3187,1.6126,0.4948
4.7425,-2.7920,1.9117,-6.8710,0.7135,2.0076,0.8223,-2.5353
0.7395,-2.8658,1.4965,-9.6024,0.1693,1.1901,-0.9603,2.1652
-2.1919,-4.2553,3.0848,-7.4799,-2.7654,-1.2823,-2.9818,-3.4958
-4.2587,-5.4262,-2.0529,-4.4260,0.4040,-2.4822,-5.8614,-4.3757
-5.6114,-3.8460,0.3291,-10.4969,-4.0009,-3.4721,-2.4914,-1.3961
-2.6780,-2.8691,-1.4065,-6.6451,-1.9900,-1.7819,-0.4739,-3.2338
-3.2657,-2.8338,1.5648,-3.8558,-2.1853,-1.8714,-2.4659,-1.6745
-2.8638,1.2162,0.4119,-2.3368,-2.5047,-0.6970,0.7378,0.8019
0.0531,-0.3493,2.3971,-0.0762,0.9169,-0.9806,-0.2566,3.7210
1.2342,3.5203,3.8126,0.8370,4.1761,2.4322,4.8640,3.6780
7.0064,4.9312,6.7630,5.6485,4.5177,6.1481,5.4163,8.2863
6.9438,4.8516,7.3667,6.2647,7.7722,6.0391,6.1550,4.0950
6.1087,8.4137,4.3384,5.6220,7.8607,7.3177,6.7222,9.0024
8.1387,8.3990,5.9849,11.5067,7.1662,8.4376,7.0382,6.3693
5.2001,10.1015,4.0325,11.2379,3.7964,6.0438,7.2291,8.7138
2.4953,7.3930,1.9857,9.2936,1.0707,2.8302,3.1428,5.3242
4.5441,3.1225,2.0322,8.4147,-0.1735,-0.0196,2.6348,2.2211
1.5461,5.4963,0.2275,8.1154,-0.7076,-4.8323,1.1996,2.2560
-2.1417,2.6600,2.6401,4.9934,-1.4742,-2.5455,-2.2343,0.7540
-1.8885,0.0093,-1.9671,4.0087,-6.2563,-3.4880,0.5138,-1.2183
-3.6189,-2.6563,-6.1718,0.1372,-3.1635,-2.5658,-4.7690,-5.0333
-4.8495,-5.0088,-6.3000,0.4775,-2.6853,-3.1533,-5.5644,-5.2863
-1.7632,-5.2768,-5.1405,-3.0486,-2.9910,-3.0552,-6.9717,-5.5103
-0.7240,-4.2365,-4.6524,-5.2091,-0.4507,-5.0567,-3.7431,-6.5027
-6.2938,-4.2674,-11.1757,-9.2586,-1.9481,-3.9907,-6.6257,-6.3305
-4.1678,-6.0770,-12.5024,-8.5848,-1.2868,-2.5371,-9.9636,-11.5811
-6.9528,-10.4056,-7.5730,-11.6274,-4.6698,-1.7720,-8.0130,-9.1709
-7.6692,-12.4432,-10.2067,-12.2744,-4.2528,-5.8053,-10.3313,-11.0673
-8.5737,-11.2324,-12.1067,-12.9160,-4.4324,-6.3933,-10.8356,-12.4793
-9.2872,-14.1400,-9.5111,-12.9923,-5.7165,-6.2553,-11.7341,-12.3311
-7.5990,-10.2370,-13.1997,-7.1626,-9.4024,-8.9806,-11.5700,-10.7677
-7.8773,-9.2945,-7.5848,-6.5689,-7.3350,-6.4042,-8.3224,-14.2307
-4.4851,-7.2943,-4.9098,-3.2455,-5.7686,-6.3616,-7.2318,-7.4661
-2.6732,-5.8656,-1.4233,-5.0290,-2.0924,-1.5291,-0.6522,-4.6910
-0.3584,0.7704,-1.5208,0.1069,1.0295,0.2271,-1.9039,0.7992
1.2365,2.6745,2.9382,1.2544,1.5680,3.2740,5.6815,2.1690
4.0256,4.8404,4.0134,5.0825,5.3526,4.0770,6.2472,6.0915
7.7639,4.7647,7.9729,7.1887,3.9246,8.0150,9.2777,11.1425
8.4232,10.6805,7.9031,12.2091,9.9271,10.8913,11.6956,11.9374
6.5249,14.1458,9.7009,10.7986,6.9155,6.1722,10.2720,12.5708
7.8341,13.9356,9.3105,13.2955,6.9688,6.3754,12.5179,10.4717
8.0656,10.0781,11.7679,12.2231,5.1946,6.0064,6.5710,11.4469
3.4727,8.7690,11.6671,13.8349,6.0649,5.5254,8.5924,9.3215
5.8273,9.0951,9.3306,6.7960,-1.0042,2.4128,7.1726,8.2646
3.2020,5.5967,8.8540,9.2424,2.5559,-1.6688,5.5748,8.0696
4.4440,6.3223,5.6122,7.2198,2.2288,4.4264,6.1184,5.5454
2.0076,5.8676,6.2231,2.0697,1.8942,3.7154,6.0828,7.7437
0.0680,5.4101,5.3776,3.0011,5.5118,0.3080,5.6143,4.3201
-0.1358,2.1663,8.0366,-0.0792,1.8203,2.2400,3.8501,4.4163
1.6751,0.5583,0.9486,-2.9939,4.1567,5.3512,1.1826,4.3646
0.9754,-2.1454,3.1963,-5.8928,2.8273,4.4646,1.1393,2.1333
-2.0942,-3.9555,0.8050,-7.5826,2.8942,2.4099,-1.0753,-3.3751
-1.3015,-4.9985,-1.9367,-4.9963,-1.7476,-1.0110,-1.8264,-2.5631
-6.2796,-5.8957,-1.2355,-9.2151,-3.7899,-2.5660,-3.9457,-3.8350
-5.1831,-6.4609,-4.5387,-8.6272,-2.8418,-4.6823,-6.6097,-5.3176
-7.7353,-9.7864,-5.3188,-10.9011,-5.1498,-4.0954,-8.9745,-9.2985
-7.0984,-6.2987,-6.2866,-10.0767,-8.6459,-7.6422,-8.8422,-8.8483
-5.5502,-8.0581,-4.1537,-5.7769,-6.7915,-7.1913,-8.1234,-5.8068
-5.7663,-6.0385,-3.6546,-7.3237,-4.2205,-3.2847,-6.4793,-7.1491
-3.4334,-4.9316,-5.1938,-3.4086,-1.7434,-3.0666,-3.7761,-4.6277
0.4865,-4.9996,-5.0020,-0.0425,-1.9447,1.1419,-1.0229,0.2681
-0.1350,2.3262,-2.0944,2.6884,-3.3435,0.0206,-0.1544,-0.1494
3.3847,4.0717,-1.9316,4.5480,3.2843,2.4173,1.6036,0.4892
1.2886,3.8800,-0.0783,7.1904,1.4069,1.8538,2.8720,1.3407
3.9964,4.9910,2.2375,8.7761,0.1253,3.1623,2.2778,3.5508
4.9878,5.5202,-0.3294,9.2953,-1.9217,0.1090,1.3990,0.7874
-1.7075,1.6562,-0.0642,6.5213,2.2210,0.2685,-0.6332,1.6290
-0.2555,2.0672,-0.4992,6.8243,-0.3087,-2.6560,-0.1412,1.4014
0.7415,2.7561,-0.0089,7.8660,-2.1760,-0.7967,0.4355,1.6745
-1.3021,-1.5602,-5.3437,5.9483,-0.6502,-1.6588,-2.3780,-0.3223
-1.0076,-0.2887,-3.4893,0.9096,-2.0878,-5.6392,-2.4728,-3.1872
-2.7132,-3.5723,-2.7418,1.7798,-0.3540,-0.7776,-1.9157,-0.8477
-1.6734,-1.4440,-1.6132,-3.4510,-4.1855,1.6497,-2.0950,-3.3253
-1.9289,-2.7031,-4.4126,-2.1348,-1.3102,-1.1894,-4.6364,-4.8706
0.1044,-5.6007,-6.6999,-1.0384,-2.9825,-1.5191,-1.6824,-3.4360
-1.4119,-2.0765,-3.1456,-6.9079,-0.5850,3.9956,-1.7799,-1.3137
-1.6911,-5.7165,-5.1984,-8.1968,-0.8167,-2.4222,-5.6344,-3.6917
-3.4445,-6.7050,-6.1410,-7.0227,-0.2098,-1.1196,-5.7723,-4.5178
-4.2847,-5.9997,-5.2680,-11.3492,-2.1215,-1.9204,-3.3380,-2.6689
-4.8282,-5.1159,-4.3462,-10.3613,-2.3435,-1.2608,-5.7234,-7.6502
-3.8900,-8.4048,-4.3759,-8.2875,-3.0251,-3.5407,-8.7824,-7.3811
-4.8969,-6.1504,-5.7624,-9.2192,-1.0572,-5.0375,-6.8890,-7.2132
-2.9796,-4.1852,0.3456,-7.0108,-4.1801,-5.1339,-3.7883,-2.8552
1.1884,-1.6242,2.7650,-3.3003,-3.7041,-2.8053,-3.0911,-1.0968
1.3899,0.3589,3.9715,-1.0623,0.1870,-1.6925,0.6463,3.5806
1.8942,2.6271,3.5503,1.6946,1.1309,2.4060,4.2168,4.5334
6.4850,5.0078,7.1357,3.7865,7.0937,4.0245,9.2283,6.4287
6.0681,9.0909,9.3213,7.6012,6.6008,4.7846,9.0972,9.5356
5.0619,9.4092,11.6564,9.1295,7.6171,10.3482,12.9871,11.5548
7.3279,7.8376,12.5989,11.6158,8.2868,8.2472,14.5296,9.8788
5.9991,13.1556,10.6924,11.0483,9.6661,6.6863,14.6522,16.5663
7.5724,13.2808,11.4947,11.6237,7.1641,7.1484,12.2206,12.5733
6.9324,7.1189,11.1000,9.8178,4.7520,5.8171,7.4962,10.7562
7.9683,7.4352,11.2280,10.0717,6.3757,1.2580,9.3711,9.6026
4.4667,7.9550,8.4551,7.2855,0.9367,2.7184,8.3230,7.8145
2.3214,8.1786,6.7831,4.9044,1.0367,-0.5874,4.7267,4.6375
2.8090,3.3006,3.8644,4.8511,1.2405,2.8286,5.7051,2.1414
-2.6044,0.4960,3.9826,2.5710,-2.4491,0.7839,2.7815,2.3909
0.3534,-0.2743,0.6146,1.1743,0.7204,-0.5998,0.8524,0.5786
0.4440,0.4743,-3.1585,-2.8986,-1.5806,-1.1157,0.1379,-2.7066
-3.7828,-4.2383,-1.6336,-3.8510,0.9721,-0.4195,-2.5882,-0.9597
-0.9345,-6.2911,-4.5526,-5.7493,-2.4273,-0.0642,-8.5875,-4.4083
-3.4686,-7.7504,-8.0629,-7.8348,-1.1818,-2.2592,-7.4991,-5.6557
-6.0765,-10.3798,-9.7635,-11.3626,-2.2189,-4.2034,-6.8841,-6.5919
-5.9556,-10.4793,-9.9692,-11.0787,-4.4223,-5.6269,-11.6526,-10.4083
-4.6936,-9.4879,-10.6769,-11.3513,-7.0238,-8.3065,-12.1287,-11.3180
-8.5325,-12.0161,-11.4977,-11.7829,-8.9354,-9.1033,-14.0680,-11.2857
-8.4677,-12.5982,-11.1294,-14.0588,-9.8584,-12.1224,-9.7106,-13.4738
-8.8081,-11.4552,-8.2083,-9.0744,-6.2589,-7.0049,-8.8560,-11.2972
-7.9549,-11.3064,-7.7238,-3.7274,-8.0749,-6.5774,-10.8587,-9.3446
-3.4377,-4.9246,-7.1520,-4.8352,-6.4264,-6.0310,-6.8140,-8.4690
-3.6674,-3.2944,-3.8449,-2.3865,-1.3363,0.5138,-5.1890,-0.6918
0.0241,-0.3650,-4.5430,2.2546,-1.0121,0.3126,-0.3441,-3.3774
1.2082,7.4535,-0.2558,4.8851,0.8675,0.7383,2.1110,-0.6006
4.1327,5.2766,3.7140,8.4460,1.5417,4.9922,4.6318,5.3856
4.7659,5.1152,2.1270,6.3810,3.5652,4.8867,5.2873,5.8593
6.0380,6.2415,2.1974,10.2793,3.9562,4.6722,9.8558,3.9138
3.4143,8.5615,3.0913,10.2978,3.6432,2.6399,3.9613,6.4141
3.1485,6.4705,2.6970,8.8218,3.6168,2.8656,2.5588,7.3265
1.3586,3.3322,3.1794,8.6768,1.9401,0.7571,3.9469,4.4912
1.5311,5.9934,3.6896,8.4895,0.1574,1.2776,1.5876,7.8378
2.3595,2.8214,1.9668,6.7945,-0.0564,-2.6165,1.2322,0.8848
2.7827,5.9879,3.9085,2.1706,1.3227,-0.0933,1.6760,4.2187
0.3121,4.2698,5.0281,3.4355,3.1672,3.8416,1.6338,4.7669
3.1077,1.4726,2.0517,0.3867,2.2859,0.9458,1.4441,4.2130
3.8406,3.4590,5.3377,-1.1433,2.0748,1.8727,3.3926,2.3088
2.1845,0.8309,3.3455,-2.8591,1.5545,2.3718,1.3568,1.6805
3.8128,0.9579,3.5193,-4.8317,0.5659,0.9115,1.0544,1.9899
-1.0365,-0.8376,0.2948,-4.2863,2.8369,-1.4749,1.6155,1.4978
-2.8068,-4.1303,1.8681,-7.3761,1.3686,0.1557,-2.0510,0.0022
-4.6681,-4.9653,-1.6379,-9.6793,-0.1340,-0.7962,-2.3968,-0.4399
-0.5814,-3.2014,0.9788,-8.7837,-2.5198,-2.4055,-2.2385,-4.3154
-2.2202,-5.3927,-0.1236,-7.4688,-1.0409,-3.3686,-5.9640,-3.3933
-3.0665,-4.9075,0.8129,-4.7529,-3.9636,-3.1728,-6.2344,-4.0671
-1.7112,-4.3991,-1.0319,-3.9120,-1.0666,-0.9652,-1.0602,-2.1586
-2.4186,-0.3647,0.4474,-3.7972,-1.0860,-1.3136,0.8158,1.6006
4.6915,4.4570,3.9190,3.8213,0.0133,0.0647,5.1920,2.2576
3.0504,2.2095,2.8328,3.1830,3.8889,2.5784,4.4153,8.0885
4.6398,6.0427,5.9941,7.2124,5.4146,5.6691,7.2360,6.2965
6.7100,9.7697,3.9383,7.1723,6.5180,8.1006,7.0055,7.3882
6.8422,8.4183,7.4792,9.7070,6.4504,5.3862,8.3086,8.0220
6.2546,9.2602,4.0538,10.9740,5.7309,5.9362,10.1295,6.6719
3.8983,6.2377,5.9253,11.6276,8.0685,4.9935,3.4694,6.5687
4.4945,7.0892,4.8119,10.8022,4.4668,1.2016,5.7315,6.8028
5.0824,4.3781,1.3125,9.3793,1.8311,0.7775,6.4338,3.4014
2.7558,4.1938,1.5633,6.0313,-0.8342,-3.2005,1.6848,0.0716
1.8040,2.6095,-0.6093,3.7992,-0.7822,-4.9465,1.8901,-1.9734
-2.3698,3.0205,-3.4248,3.1516,-2.2220,-2.4489,-3.1250,-2.8565
-3.7899,-1.4471,-5.6182,1.9831,-3.1120,-3.7271,-3.5368,-3.3780
-2.9640,-3.0810,-8.3968,-1.8245,-3.3778,-2.6190,-4.5100,-2.7699
-3.0689,-4.4269,-6.1481,-1.9320,-2.6960,-2.6015,-8.8306,-7.5149
-1.9469,-6.3994,-10.1323,-3.3212,-7.1432,-3.8522,-8.1931,-6.9206
-6.7346,-6.5866,-8.6537,-8.7280,-2.2649,-2.6487,-9.1004,-7.2386
-2.7179,-8.8350,-10.0777,-10.2706,-3.9848,-5.1018,-7.3256,-11.3093
-6.2138,-9.4196,-9.3607,-10.5900,-1.9568,-2.2594,-8.3641,-10.9227
-7.5788,-8.7874,-11.2442,-10.8555,-5.6300,-7.6930,-10.1463,-11.6521
-9.2033,-12.9535,-11.2984,-12.4798,-8.6685,-7.1787,-9.9854,-12.4155
-10.4735,-9.7776,-9.2152,-9.3646,-7.7589,-9.2474,-11.4636,-10.9296
-6.4371,-8.7461,-8.7435,-9.7136,-9.3334,-6.9086,-8.6430,-10.6867
-6.5209,-9.2502,-7.1156,-8.5067,-6.2443,-7.4516,-8.8159,-9.6620
-6.8257,-9.7780,-4.6977,-8.2799,-4.8144,-6.0288,-6.3273,-5.7722
-4.5405,-4.3853,-5.1130,-5.1684,-1.3895,-1.5465,-3.7757,-0.7927
-0.5037,1.9455,1.1352,0.4215,-1.1863,0.0441,1.0267,2.4589
5.1014,3.4393,3.7284,-0.0042,2.8773,3.6013,2.7455,0.4931
4.5014,5.0963,3.8765,7.6450,3.2033,3.7789,7.8788,7.2797
4.3761,8.3159,7.2237,8.3287,8.0067,4.8472,7.1308,8.5620
7.3032,11.9827,9.1872,15.2144,8.5425,7.9250,8.7975,10.6786
7.5821,12.3075,10.1113,14.8548,8.4277,7.2058,12.2485,10.6200
3.6398,11.0853,11.3051,11.4208,6.8875,7.8247,11.0887,11.3979
6.8571,10.2135,12.9382,11.1574,6.2812,5.5392,9.9515,10.8594
5.6304,9.0847,12.0021,11.8728,6.7523,4.6534,11.0074,8.8039
6.0566,7.0083,7.7142,11.5700,2.8245,0.8170,7.6478,7.2142
6.9694,9.5174,9.7298,4.8965,2.7887,5.4134,7.1548,6.7821
5.2780,5.3861,9.7785,2.8206,0.7584,2.1412,8.5397,6.7922
2.7491,6.5442,7.2528,2.5967,1.2723,3.6210,7.8129,6.4027
1.1155,5.8516,7.0893,2.3645,3.0691,1.6683,6.9189,5.8403
6.1655,3.8140,7.1238,0.1619,4.8072,3.6134,3.0656,2.7475
1.6918,0.2164,4.1521,-1.0480,2.6146,1.0447,4.0272,2.6069
0.6067,-0.2228,1.3740,-6.4564,1.9390,2.9710,-0.8376,2.0295
-0.7739,-2.7515,0.8774,-9.9782,0.3916,0.4680,-2.6221,0.4866
-1.9622,-6.0143,-2.1404,-6.7840,-1.5490,-0.7031,-6.7561,-3.3187
-4.0038,-5.9602,-3.8376,-10.4585,-2.2480,-1.6435,-2.6018,-5.4425
-5.9445,-9.5998,-5.6240,-12.8281,-6.7318,-6.3347,-7.9514,-6.3687
-6.7391,-6.8001,-3.5574,-9.4972,-3.8664,-6.8145,-7.8184,-9.3532
-6.1698,-9.2346,-7.4346,-7.7172,-7.3266,-5.6425,-9.2282,-8.1531
-6.4365,-7.3497,-3.6905,-7.5830,-4.8997,-2.8352,-6.2559,-6.1818
-5.5449,-5.5815,-4.5495,-5.9861,-6.7051,-5.0072,-6.5699,-5.0435
-2.6969,-4.1992,-6.3542,-3.0248,-1.9968,-2.1134,-6.1354,-4.5836
-1.4054,-0.4832,-2.4717,-0.6494,0.0821,-1.0863,-1.4332,-1.7691
2.9864,0.2877,-4.9400,0.4993,1.6042,3.9413,-2.2283,-1.3147
-1.8453,4.2734,0.2067,3.7446,1.0079,-0.1213,0.3233,2.6346
4.6204,2.2831,1.3448,7.3786,3.6117,3.3793,-0.5033,2.5403
5.0709,5.0801,-0.5072,8.2193,1.3767,0.7130,0.9157,2.6378
-0.2847,7.6547,0.5418,8.4454,1.9476,-1.4331,3.0549,2.2445
1.4860,2.4995,2.9312,6.5073,2.5441,1.4462,-0.9468,1.9057
0.3827,1.8441,-1.3449,6.9783,0.6935,-0.2923,-1.3202,0.2297
-2.2354,2.3355,-2.8699,2.8083,-1.8148,-2.2648,-0.2777,0.7130
-2.1643,0.5907,0.2491,4.8741,-4.1959,-2.8930,-2.1391,-1.9166
-3.2302,-0.2031,0.3646,5.1122,-2.0754,1.6037,0.8719,0.2733
0.8212,-0.8037,-3.0532,-0.9586,-2.7494,-3.1657,0.1355,-0.4175
-0.3998,-1.1915,-1.8962,-1.3626,-5.5769,-1.3312,-4.1779,-4.2133
0.2119,-0.9851,-1.6625,-1.7116,-0.0844,-2.2324,-2.1814,-2.9125
-0.5647,-2.5633,-4.9988,-2.0058,-0.5938,-0.1146,-2.0541,-4.1540
-3.4871,-4.1855,-4.8031,-6.1583,1.5628,-0.5983,-4.3671,-3.9609
-2.9843,-3.6057,-2.3991,-7.9837,-2.0866,-1.0595,-6.1829,-0.9359
-2.0927,-2.6398,-1.8290,-11.1221,-5.9148,1.5786,-4.5550,-4.9979
-5.3865,-6.4995,-3.4872,-8.8798,-1.7712,-0.4240,-5.3839,-4.5843
-3.1098,-8.3006,-5.3892,-6.3491,-2.8412,-3.0734,-6.1568,-4.6912
-4.8421,-5.2205,-0.4882,-8.7661,-6.6163,-7.5366,-4.7893,-6.9537
-4.8276,-6.4234,-3.2506,-8.3012,-5.7573,-4.8311,-5.9155,-6.0721
-2.3478,-8.0874,-1.5027,-6.1737,0.4257,0.3474,-5.1422,-5.2232
-1.2583,-1.3927,1.3662,-4.4332,-2.7510,-2.6385,-1.1829,-2.6755
-0.4582,-0.7087,5.3255,-2.9141,0.9144,1.4727,1.8454,-3.0086
4.1223,3.0418,6.5378,2.5293,1.3583,4.4972,2.4032,4.9851
3.0616,6.7472,8.0602,4.6338,1.7353,5.1992,8.4271,10.1162
7.6041,9.2474,10.0260,7.0726,6.7703,5.7629,6.8772,9.7546
9.0087,12.0816,10.8235,7.8520,8.0671,4.8125,10.5111,9.2538
8.3757,11.5664,12.4336,12.8843,8.3939,10.0200,11.9995,11.4223
9.2944,13.2704,7.9993,12.7907,8.4165,7.3663,11.5464,11.8125
6.2230,11.5356,10.9268,11.0681,7.7971,7.6650,10.9459,10.2671
8.2908,11.7716,10.7761,12.8055,5.4893,3.8398,13.2478,11.7314
5.1763,9.8729,7.3177,9.3778,1.9817,3.4798,7.4035,9.8952
3.1922,5.6231,7.9778,7.3290,2.9502,2.2715,10.4122,5.0172
4.2236,6.7213,5.2928,5.4360,-1.9407,1.3862,5.5040,5.9359
0.5084,2.4654,6.3718,1.8065,-2.8135,-1.4102,3.2263,5.3785
-1.4004,2.8001,4.2264,2.9592,1.1067,1.7933,2.2061,4.3456
-2.3349,0.5509,-0.6987,-2.7467,0.7605,-0.8953,3.7949,4.2978
0.1967,1.1693,-2.0931,-4.0945,-0.0840,-2.5096,-2.9821,-2.8447
-3.4855,-3.6046,-3.8495,-7.5764,-2.3552,-0.4256,-4.7689,1.1481
-0.0179,-5.6163,-6.2770,-6.7046,-2.0452,-0.9318,-5.9806,-5.3796
-7.0992,-7.0554,-7.1058,-8.7274,-2.6151,-1.9801,-6.7022,-7.6391
-2.9089,-9.4046,-10.1816,-10.6142,-6.2715,-1.8345,-11.2685,-8.1892
-6.5882,-9.4634,-12.1100,-12.8666,-6.8230,-6.0692,-10.4077,-11.3143
-8.2447,-14.3494,-10.4376,-13.6559,-6.4223,-7.5802,-9.2531,-11.1949
-9.6226,-14.0813,-10.8494,-11.0971,-6.4475,-10.2433,-12.2737,-14.4809
-8.2413,-13.8214,-12.8028,-11.7549,-9.6229,-7.7629,-12.8255,-12.7446
-8.1755,-9.5920,-9.4152,-8.8406,-7.3308,-8.1890,-12.3055,-9.4499
-5.0252,-6.3957,-10.2785,-8.3740,-9.8967,-7.6557,-8.1851,-9.6185
-4.5118,-6.4059,-7.0582,-4.0236,-3.8816,-7.7278,-8.2737,-6.8225
-2.1578,-3.4308,-4.0263,0.6605,-3.5402,-0.1677,-1.3986,-3.4553
-0.6286,0.0108,-3.0447,2.5738,0.6431,-1.6594,1.6336,0.4895
1.8393,4.4067,-0.1706,3.7979,1.9209,1.4056,1.7317,-1.1363
3.8759,3.4374,0.2254,7.0427,5.6877,4.2446,3.3969,4.2910
1.7001,6.6004,2.1594,7.9068,2.9779,2.4947,6.3354,4.3872
2.4594,8.3439,3.1600,9.1940,5.0217,1.8400,7.0949,5.7027
5.2942,7.5905,2.9496,8.9238,2.8593,0.0926,4.2942,7.0931
3.8096,6.5849,4.0663,8.7885,1.9524,3.2713,4.3348,3.3334
2.5507,6.9912,2.0336,8.4869,0.8739,0.3319,2.5530,3.0176
2.2252,0.5597,3.5086,5.4553,-0.8248,4.8346,4.5532,1.0364
2.3149,4.8404,3.6478,3.9622,0.2198,-1.2506,4.4709,2.6472
0.8376,2.1969,3.5008,1.8023,0.4635,-0.8247,1.1531,5.1736
0.5279,-0.0963,3.3125,-0.1952,1.6202,0.4103,2.3343,2.8362
2.0970,2.9104,3.3207,-1.3422,2.2231,2.4611,0.8551,0.8658
0.3396,3.5980,3.7779,-1.0134,3.9755,2.0732,1.2671,1.8868
2.1767,0.5229,3.8911,-4.3081,4.4290,3.9623,2.9426,-0.1157
-1.5563,1.1080,0.9988,-3.8359,1.1578,1.2658,0.2234,-0.3641
1.6679,0.8537,-0.5232,-6.0218,3.1407,-0.2348,-0.1770,0.8574
-0.2309,-0.8884,-0.9768,-10.2033,-1.2779,-2.1957,-3.3425,-2.6624
-1.6160,-1.5401,-0.7308,-7.0175,-0.1182,-4.3354,-1.7195,-0.3310
-1.3514,-3.6331,-0.8844,-6.9772,-1.3972,-3.1039,-2.8535,-2.8938
-0.7035,-4.7774,-1.5363,-9.2276,-6.0182,-3.6027,-4.1451,-2.9233
-1.4616,-6.7050,-1.9611,-5.9664,-3.0979,-4.1845,-2.9406,-3.0746
-4.8925,-3.3355,0.0473,-6.1014,-3.2023,-0.6344,-1.3090,-0.4201
-2.6497,-2.2650,2.0621,-2.3749,-2.1660,0.8142,-1.1446,1.2525
0.0857,4.6197,3.9157,-1.8032,2.9521,0.4236,-0.1187,2.5982
2.8957,3.5470,3.4191,0.0961,2.0196,0.3092,6.8866,5.0254
5.2522,6.1912,4.6798,4.7251,3.5905,3.9500,5.0565,5.6883
4.5327,8.4786,4.5990,7.2143,6.0961,5.0828,7.1535,8.1120
6.4008,8.6031,6.1598,8.3104,7.3568,5.3427,9.3790,7.3559
4.7857,11.1242,4.6299,7.9387,5.5753,4.7412,12.9222,7.6320
4.1667,6.8973,5.9565,9.2005,6.2355,3.5057,4.7887,6.2434
1.6773,6.7387,1.1946,9.6201,3.4869,2.1106,5.7858,4.4253
0.8745,3.5451,1.8182,8.0037,-2.5205,-0.2065,2.1691,2.1968
-1.2898,0.7352,1.1419,6.7777,-1.7961,-0.6895,0.4536,1.9633
-2.0496,-0.0892,-0.7242,3.6517,-3.1357,-1.7523,-1.6661,1.3801
-0.0225,-0.9194,1.4230,4.4103,-2.2799,-4.3649,-3.8696,-0.4245
-3.7296,-2.9605,-3.5807,-1.1808,-7.0886,-1.2447,-3.5507,-5.3736
1.1732,-4.6083,-6.9590,-0.7591,0.9011,-4.3925,-6.7720,-2.6265
-2.4125,-6.8280,-6.8158,-1.7570,-1.7781,-5.0014,-4.0840,-5.9814
-3.3109,-5.9943,-10.4495,-4.7788,-2.1643,-1.8164,-6.3583,-5.5397
-5.4835,-9.3514,-8.9176,-7.6573,-0.8084,-3.8069,-6.8215,-8.8144
-3.9618,-7.2518,-10.9321,-9.8076,0.2634,-2.7702,-9.2580,-8.3458
-6.8403,-9.5487,-9.0064,-8.8253,-3.0397,-7.9513,-10.2231,-9.2018
-6.7555,-12.9501,-11.6155,-13.4514,-4.2358,-3.5704,-10.2010,-12.8592
-3.8450,-11.9075,-10.9794,-13.1481,-6.6890,-5.8766,-12.9676,-10.3091
-8.1353,-12.6156,-11.2663,-11.9893,-7.8963,-9.9347,-11.7544,-9.1985
-5.9479,-10.2430,-6.6378,-8.4932,-8.4779,-9.9824,-11.7353,-10.7079
-7.6856,-7.0624,-8.0717,-7.9962,-8.1936,-4.4461,-10.1649,-6.7888
-4.9433,-9.4080,-2.6527,-7.5781,-6.2814,-6.3569,-9.5789,-6.6987
0.0583,-3.3010,-1.5884,-3.6601,-4.8521,-4.0776,-1.3683,-2.1029
-0.9405,-0.2402,0.7231,-0.9215,-0.1138,-3.3991,-1.0298,-3.3279
5.3166,4.4806,3.3628,2.1300,0.2993,2.3001,5.1224,7.0055
5.9524,6.9150,5.9923,7.5943,5.5372,4.9093,8.0173,8.6573
5.7871,7.9451,4.6984,6.5083,6.9000,8.0277,6.9001,8.4021
8.6204,10.2432,8.8278,12.7629,7.9846,5.6656,8.8133,7.4878
9.4500,10.2933,11.5807,12.6353,6.9008,5.4036,15.0581,11.6494
8.6179,13.0577,10.7309,13.3293,11.5003,7.5615,13.8479,9.0556
4.5832,10.7957,8.6834,10.6225,7.6992,7.1691,10.5850,11.2996
4.8861,12.5241,10.3008,10.1545,2.4790,1.9891,10.0584,10.2897
4.6410,8.3009,12.2387,6.8655,3.6014,4.8744,7.6125,7.1466
4.0843,6.0317,10.6670,6.5665,1.6688,2.6371,8.1036,9.1366
4.5191,3.5990,7.6921,6.2406,0.8659,4.0253,5.3651,7.6492
3.4190,2.0138,8.0997,5.4739,0.5646,2.4693,2.4557,6.9679
0.7723,1.1935,4.9031,-0.1703,3.5707,-0.8610,2.5779,4.5736
2.8758,2.7172,1.5496,-1.1317,2.1293,2.9234,3.5204,1.3655
2.5188,1.6269,1.2299,-2.8796,4.4507,4.5892,0.4846,3.6480
1.4255,-3.2002,3.3443,-6.7505,3.7836,0.9523,0.4849,0.1802
0.8835,-1.3726,-1.1012,-5.6169,3.0628,0.4200,-2.8738,-3.3464
-1.0085,-5.3834,-2.7228,-9.1570,-2.0254,-1.0111,-4.4040,-1.2024
-3.0985,-6.2266,-4.3232,-9.5092,-1.9774,-7.0397,-3.8313,-1.9620
-5.1893,-5.4130,-2.2406,-10.4783,-3.5372,-1.9789,-6.2842,-6.7173
-8.4102,-7.2364,-3.4636,-10.8988,-6.4991,-7.1398,-7.6431,-4.3899
-5.4762,-8.9405,-2.8788,-8.9175,-7.4861,-5.5698,-6.5443,-7.7258
-5.3098,-8.9882,-6.2276,-7.7233,-3.5683,-6.1126,-6.5778,-7.8694
-4.0683,-9.2341,-4.8559,-5.8571,-4.4589,-2.9137,-3.8366,-6.9521
-4.7717,-4.8896,-6.5302,-3.8785,-2.0461,-2.3910,-4.8680,-1.7226
-2.6445,-1.6800,-0.8078,0.3858,-2.1590,-1.2782,-2.7401,-3.2659
2.3101,-0.4807,-3.5416,5.0018,-0.8010,-0.3124,-2.0294,1.0252
2.0719,2.7696,-0.4064,5.0265,1.6453,3.6963,0.9359,0.7407
4.0054,4.4173,-1.6290,8.0909,3.0514,0.4272,4.1042,1.9666
3.2442,4.5533,-0.5019,5.6515,1.5549,4.1201,5.0017,4.5971
2.8701,3.7713,-0.8994,8.4300,2.3120,0.6782,4.2276,2.2171
3.4074,4.2530,-0.9118,6.3539,-1.5328,2.8784,-0.6913,1.3928
0.1658,3.5237,-1.3950,5.0352,-2.1817,-0.2596,2.5263,2.6007
0.0200,-0.0709,-2.1040,4.9648,-0.8312,-0.8714,-3.0320,2.1219
-1.6910,2.4377,-0.7234,6.3942,-1.8280,-2.6107,0.0235,-0.3566
-2.2161,-0.8770,-4.2366,4.3939,-3.6316,-5.6723,-2.6678,-3.0983
-2.2709,-1.5092,-2.7279,1.6171,-4.3051,-4.0696,-1.5615,-3.3812
-1.4701,-1.0813,-1.5864,-2.7828,-3.6375,-1.0878,-4.8747,-2.7562
-2.4135,-2.2999,-4.4445,-2.4996,-1.8183,-1.0084,-1.2603,-2.5357
0.2364,-1.7483,-4.9620,-3.4325,0.4093,1.2140,-5.3754,-4.6598
-3.1355,-3.3929,-4.4209,-5.2227,1.1515,0.3640,-4.4736,-2.3864
-2.4778,-5.5332,-2.4758,-9.7110,-1.1885,-1.8938,-5.4367,-3.8113
-3.4863,-4.9474,-4.0654,-9.5042,-2.8800,-2.3438,-7.1680,-7.1101
-1.3828,-8.0161,-5.1283,-9.1311,-1.7881,-2.0354,-4.9829,-6.5181
-3.8845,-6.6760,-3.3436,-8.6078,-4.5139,-6.7496,-2.7940,-6.2593
-2.9339,-6.9309,-5.1223,-12.4764,-4.8577,-1.5701,-1.4524,-5.5620
-6.4937,-6.5550,-1.4321,-8.5110,-2.3017,-3.6270,-4.6437,-1.9555
-3.0136,-5.0212,-0.3871,-6.4423,-2.4664,-1.8666,-1.7392,-3.0570
-0.5903,-5.4866,0.3910,-3.1421,-2.0556,-4.6635,-0.9984,-2.6077
0.2066,-0.7288,1.7364,-0.6553,-2.0900,1.6848,2.0148,1.5974
3.9815,3.3169,3.9268,2.1683,2.6514,5.6816,3.6550,3.6401
3.9072,6.4890,8.2402,3.0952,6.4648,2.8894,7.3275,7.5221
8.7942,7.4201,11.1746,4.1841,6.4622,8.1827,10.3391,10.4037
11.5674,12.9160,9.8023,8.7255,10.4922,8.4671,10.5106,13.1921
8.2958,10.9204,12.2840,12.4315,10.9329,6.6771,12.2702,12.3501
8.1370,13.9550,8.6631,13.8838,11.0841,9.3278,12.4131,14.9592
10.2797,12.5657,10.4948,12.9633,7.8586,8.6512,13.0331,13.1555
9.2741,9.6940,10.3675,11.9468,6.5956,4.8128,8.8421,9.3800
4.6693,11.6128,7.6797,10.6936,5.9990,5.6265,8.6025,11.9946
3.3460,5.2358,5.9936,7.6678,2.8920,-0.2792,9.6184,7.2409
2.2274,6.4711,4.5978,6.3804,0.2315,-1.2588,6.5944,3.5956
-0.4518,4.7702,4.1769,6.9667,-0.4108,0.4669,5.1120,5.5676
-0.6657,0.5820,1.5859,0.8380,0.3558,0.0360,1.5284,4.6084
-1.5062,2.0887,-3.3573,2.4222,-1.9358,-1.0749,0.4815,-0.0495
-1.8640,-1.9630,-5.0479,-2.7349,-0.2128,1.2165,0.0116,-2.2472
-1.6169,-2.8363,-4.6489,-2.4749,1.3828,0.5343,-0.7479,-3.3468
-2.2988,-4.7018,-4.9130,-8.6857,-4.2702,0.3039,-7.7757,-3.7762
-1.6505,-7.2277,-11.5196,-7.6231,0.0808,-2.4057,-8.7235,-4.8336
-6.9511,-7.7336,-9.7938,-11.2293,-2.1941,-2.9738,-6.7157,-7.8241
-5.4283,-9.4731,-11.2035,-13.4257,-6.4041,-6.3830,-10.8565,-10.2886
-8.4206,-14.5477,-9.2892,-11.5697,-6.5857,-4.3200,-12.8010,-9.5464
-8.8794,-10.5443,-12.3712,-10.2795,-8.5838,-9.8073,-14.3820,-12.9700
-7.8278,-14.7134,-11.0219,-12.1965,-7.1488,-5.8358,-13.2190,-10.8401
-9.8032,-9.4686,-10.5464,-11.5636,-6.9915,-8.4132,-13.4818,-11.8103
-6.1066,-7.2716,-12.5270,-7.1839,-9.1257,-9.0889,-6.3962,-8.8863
-4.4335,-7.8857,-6.2856,-4.4263,-3.9899,-2.8186,-7.0686,-7.2053
-1.6446,-3.7938,-4.9337,-0.4719,-2.6428,-2.1455,-4.2551,-4.2520
0.3506,-1.7528,-2.2318,3.1190,0.3063,1.4588,-0.3844,-1.8326
5.6077,2.3415,5.0366,4.3274,1.2003,4.1283,2.7900,3.3638
2.4576,4.3664,-2.1262,9.4401,6.3293,4.2140,4.8330,2.3148
3.4689,7.4124,5.0411,8.6042,5.8497,3.4012,6.3999,3.6791
3.5469,8.8465,3.0377,8.6625,2.9706,5.5439,4.5065,8.6342
3.3461,8.9324,4.5004,6.9948,1.2766,3.2797,5.0564,6.9699
2.5972,5.4573,4.2632,8.6410,1.6113,3.2186,6.2782,1.5470
4.6102,5.1758,3.7202,7.6642,1.8015,-2.0809,3.7455,3.6887
4.3283,2.0894,3.3906,8.3858,0.8040,1.1142,3.9319,1.2216
0.9374,2.6148,4.5694,6.1797,2.1206,-0.7170,4.0691,2.0449
0.3987,4.6253,1.6093,2.1160,1.7423,3.0374,4.3558,-1.5298
2.4025,5.0731,4.8006,2.4636,2.7127,2.1930,0.3505,2.8116
0.9749,0.2921,2.7891,1.4910,2.5867,2.4562,3.9481,1.1631
2.7566,0.6488,1.3637,1.0394,0.6945,3.5079,2.2647,2.7052
1.8687,0.6895,1.9043,-1.6376,2.7502,1.5461,3.1773,-0.3216
-1.2760,0.0990,3.8591,-3.4651,4.3239,5.1686,2.4891,1.4480
2.4454,-2.7791,0.4786,-5.9837,1.7603,4.8246,2.6861,-0.3482
1.7540,-2.2247,1.1239,-6.6681,1.2562,1.0910,1.1286,1.3514
-2.9192,-4.7108,-1.0964,-6.1257,-1.4781,1.3856,0.0199,0.1170
-3.4070,-4.7680,0.7804,-10.1925,-3.8715,-3.1805,-0.6216,-1.6091
-2.7729,-4.0711,0.6469,-8.2610,-3.3363,-4.3469,-2.6146,-3.5416
-2.4815,-4.2924,2.7560,-7.7556,-2.7738,-3.1760,-2.6088,0.3210
-1.1434,-3.6210,0.4682,-4.2479,-3.4830,-1.8471,-0.2702,-3.9090
2.2849,-1.1645,2.7930,-0.6761,-1.3815,-1.6189,1.1759,-2.0276
0.7575,1.2307,3.1703,-0.8019,-0.4834,1.7325,1.6321,1.9700
1.6591,3.2558,6.1991,-0.7997,4.6790,3.4597,4.7854,7.5593
2.4067,5.6182,4.2211,4.6810,4.3584,3.3026,5.9538,5.7029
4.5249,10.0494,7.1065,8.7701,8.1617,6.7607,6.0178,7.0238
6.0710,9.3791,5.9149,9.7134,8.6216,7.6237,9.7984,5.6999
8.6106,8.1384,5.8063,10.3570,5.6662,6.0450,7.7114,9.0475
4.3076,8.8767,5.2345,9.3804,2.9732,6.2149,9.7285,8.0852
4.1230,5.9460,4.2518,7.2976,-0.4384,0.8644,2.6728,6.2947
2.2347,6.4185,2.1833,8.8440,-1.4612,1.4488,2.3953,2.2866
2.5203,3.2697,1.0123,5.2525,-3.0627,-2.7574,1.3107,0.2017
3.2046,0.6675,1.3672,7.9330,-0.2252,-3.9640,1.1203,-2.5255
-2.3993,-0.1923,-1.1384,3.5085,-2.8252,-3.9454,-1.5820,-2.0554
-3.0396,-4.6729,-2.8017,-0.2875,-2.5669,-4.5644,-3.0230,-5.1094
-1.2091,-5.2598,-6.1362,-2.4075,-6.2530,-3.7444,-6.2512,-6.3264
-2.1296,-6.5094,-8.0064,-3.6692,-4.3716,-2.8959,-7.2396,-6.1397
-0.8181,-5.6552,-6.3521,-5.8594,-1.0570,-1.1318,-5.9571,-7.1746
-3.3201,-4.4955,-7.4826,-5.6783,-2.1506,-3.0625,-9.5013,-8.2621
-5.5512,-5.0450,-7.4735,-8.7356,-3.4729,-5.6305,-9.3565,-7.8591
-5.0908,-8.7153,-11.2854,-11.4769,-3.4986,-2.6357,-8.9210,-9.5538
-5.2754,-10.0125,-11.1355,-8.4813,-3.2053,-6.9147,-12.1058,-11.0645
-6.4544,-14.1453,-13.2635,-11.6190,-7.2166,-6.9731,-8.8135,-10.9470
-7.2303,-12.3014,-10.9017,-10.2397,-7.5800,-7.0142,-9.3815,-12.7047
-6.0718,-11.9035,-7.7513,-11.2621,-7.4753,-7.4648,-12.8030,-10.2880
-4.8769,-10.0043,-8.2896,-8.0212,-3.3663,-5.3132,-10.2276,-8.6032
-2.8175,-6.8475,-4.4408,-5.6593,-8.3999,-4.5323,-9.8428,-8.6687
-1.6248,-4.1817,-3.0954,-6.0291,-1.8015,-4.1183,-4.5512,-1.8838
-0.2507,-2.9689,0.4861,3.0229,-0.1722,3.2678,1.1496,-1.3222
2.8180,4.5954,1.0881,5.1306,3.6765,3.1178,2.7565,3.5128
6.7005,4.9861,5.5294,5.5302,4.2648,5.0298,7.1053,8.1608
5.4054,9.4319,3.1032,6.9125,6.8810,8.4003,6.5456,10.2176
8.2248,13.8329,8.9658,10.8711,8.8313,8.1384,11.6429,10.4974
7.4012,10.1083,7.8673,11.5230,12.3534,8.2829,10.3847,10.6736
7.7283,7.6483,12.6133,12.2265,8.0971,10.6233,11.2398,12.6428
8.8562,10.3348,11.9573,11.6043,4.3869,5.2464,10.4930,11.6444
6.2635,11.3238,11.0795,11.1388,3.7102,3.8692,7.7650,8.7448
5.0819,11.3294,11.9640,11.1862,2.5720,3.4270,6.8291,7.3664
2.1562,5.2500,7.3733,8.2057,-0.1127,4.1880,8.9068,4.3466
4.7075,6.6147,10.4061,3.9256,1.8924,0.1278,7.0393,6.6719
4.1207,4.0205,8.0709,5.5736,3.6739,-0.3737,7.0793,5.3801
6.0202,3.4107,5.0980,3.9514,1.0111,2.0417,5.0473,6.2646
1.8438,6.2831,5.8088,4.1447,4.7241,0.7005,3.7032,4.0273
1.9317,-1.3906,0.9571,-4.3379,3.7306,2.3617,-0.4079,4.1825
0.9599,-0.4478,-0.2368,-4.2925,1.1915,3.0466,0.1802,-0.4603
1.6285,-2.0136,-1.6031,-9.6271,0.7897,-0.3342,-1.3028,0.4455
-2.4023,-3.0301,-3.1512,-7.2413,1.6506,-2.8871,-0.3008,-4.0238
-3.3687,-6.2998,-5.4583,-10.0385,-1.5901,-2.5865,-4.0806,-3.9447
-4.1722,-7.3692,-3.2622,-6.9152,-4.4727,-3.1921,-4.3513,-8.8435
-5.6389,-9.1691,-6.2908,-10.8767,-6.1443,-8.3302,-6.7323,-7.2759
-6.7903,-8.1340,-5.6782,-11.4407,-6.2135,-5.0981,-8.9297,-10.8398
-5.3302,-8.1662,-6.8445,-8.1068,-6.7502,-4.7566,-7.1230,-7.6994
-2.8652,-5.0741,-8.0302,-8.2625,-7.9572,-3.3690,-5.6521,-5.3459
-4.3963,-4.3652,-3.8502,-1.6591,0.0632,-1.1724,-5.5869,-4.9596
-0.8235,-0.7976,-5.8915,-3.1911,-0.6929,2.3772,-2.6722,-3.6713
-0.3198,0.9562,-1.8929,2.5641,1.6251,0.4937,-0.3864,1.1914
3.9238,4.6555,-2.7840,1.6999,2.4126,2.6639,3.9878,1.4242
0.6984,4.2249,2.9979,6.1163,2.1347,2.6127,-0.4640,1.9227
2.3633,2.2310,1.7484,10.2019,2.8724,3.1542,4.8604,3.1145
3.3912,6.6392,0.5152,8.7343,-0.0723,4.6261,1.3819,6.7421
4.3483,2.6414,1.8956,6.7048,4.4156,-1.0175,-0.0581,3.7303
0.8412,1.8801,-1.8557,7.2038,-2.3534,-1.7932,2.6715,2.6454
-0.9570,0.6712,-0.4664,6.1009,-3.3855,0.2282,0.8237,0.3791
1.8242,2.3829,-1.6737,5.3153,-3.3941,-1.2037,0.5581,-1.0739
-3.7363,-3.9326,-2.1832,0.9186,-1.1117,-3.5885,-0.9151,-5.7102
-5.1054,3.1692,-1.1502,2.1415,-2.7567,-1.4969,0.4745,-3.6338
-1.1433,-0.5595,-2.3146,-4.5403,-3.9506,-1.5846,-2.0379,-3.5969
-2.4485,-2.3148,-3.2416,-3.1501,0.6231,0.9920,-3.2518,-5.8294
-3.1791,-3.2603,-6.3674,-4.6175,0.5390,-0.4457,-2.6636,-4.9141
-0.7310,-3.3953,-5.5152,-4.5360,0.5667,1.2975,-1.6057,-6.4422
-1.8318,-3.8329,-4.4294,-6.9114,0.6299,3.5193,-5.1087,-3.9971
-3.6728,-4.5218,-4.2165,-10.2771,2.4418,-0.2526,-5.5144,-3.3084
-5.4737,-5.4671,-6.0268,-10.5125,1.0878,-2.1158,-5.5881,-3.4645
-2.8707,-6.7045,-0.4519,-9.1142,-4.3086,-2.1949,-8.6600,-4.8810
-3.5064,-7.1771,-1.1942,-9.3008,-1.6445,-4.6282,-5.2456,-6.8978
-4.4142,-6.4698,-1.5509,-9.1365,-3.7148,-0.7076,-7.6186,-7.6875
-0.6443,-5.1208,-0.8919,-7.3781,-2.9585,-3.4370,-3.3346,-6.0495
-3.5299,-0.9632,0.5344,-3.3723,-4.8310,-2.7020,-0.0486,-3.2500
-2.2051,0.9846,1.5664,-2.4711,-0.4377,-1.4356,0.5512,-0.0668
1.3454,-1.2330,5.3731,1.1623,1.1151,3.9801,6.6839,3.9286
4.6148,7.2331,7.8246,7.5501,6.1129,6.1715,4.8442,5.5137
7.0452,9.2537,7.4685,4.9106,8.6323,6.2796,11.3198,10.0413
7.7572,10.9894,11.2595,6.5373,5.3538,9.3302,12.3910,11.0298
9.3681,11.6369,11.3635,12.1045,8.9607,6.7309,9.8124,12.4023
6.9279,14.1869,8.9319,10.7757,10.2713,8.8659,16.5670,14.2111
10.2653,13.3462,10.0811,11.4202,7.1207,8.0799,11.6978,10.0231
6.7815,9.5040,9.7937,10.1310,6.8081,8.2755,9.1249,11.0692
7.1296,9.5604,11.8758,9.7345,4.4044,2.7214,6.5692,8.6589
4.4904,5.5688,8.2332,10.8998,2.7334,0.3034,6.4204,6.2501
3.3352,3.0229,3.5963,7.7787,0.5764,-0.3598,4.6572,6.1762
2.4195,2.3293,4.4677,5.7564,-1.5628,-1.7428,3.2422,4.4068
1.3839,2.8816,-0.4541,0.1275,-1.6844,2.0029,1.0450,0.0720
0.9641,1.4297,1.6240,-1.7267,1.0640,2.3230,0.9498,-0.2732
1.2814,-0.8183,-2.5736,-6.5105,0.0313,0.4824,-2.0732,-1.0699
-1.2701,-2.1817,-3.8791,-5.6771,-0.4698,1.5699,-5.9907,-3.4978
-1.5866,-4.3181,-3.6108,-5.1405,-1.6192,-0.7824,-5.0724,-3.9708
-4.1109,-7.9885,-9.3291,-7.7265,-2.6787,-2.3636,-10.3016,-6.3286
-3.2934,-8.3019,-11.1399,-10.4564,-2.3073,-4.3772,-8.1492,-5.9310
-7.9194,-9.4627,-11.2895,-11.3362,-6.2174,-6.1801,-11.9101,-12.7366
-5.3982,-10.7935,-9.8141,-12.9308,-9.4123,-9.7224,-11.5484,-11.9771
-8.8655,-10.7174,-14.0727,-11.4865,-7.4730,-8.1921,-10.5297,-13.8635
-10.9862,-11.1572,-15.8446,-9.7803,-9.3011,-9.0542,-13.8096,-11.4803
-7.9269,-10.4903,-11.4350,-11.7389,-8.4184,-7.3474,-9.7864,-13.8040
-7.7018,-7.3564,-8.5035,-6.5967,-4.6143,-6.8854,-10.1830,-9.0134
-3.4222,-6.2890,-5.6375,-2.8965,-4.9016,-5.1148,-4.4051,-7.9800
-3.3622,-4.5004,-5.9516,-1.9170,-1.9005,-3.6411,-4.7159,-5.2695
-0.7525,-0.3389,-3.6114,2.7456,-1.5863,0.2903,-2.5272,-3.4362
-0.9096,1.5465,0.8781,8.6385,1.9630,3.3999,2.3774,0.6489
2.7358,3.8157,-1.8046,6.5003,4.6214,1.9921,2.7605,5.0410
0.6296,6.0261,1.8713,8.8578,1.9565,4.4208,3.5273,4.7517
2.1058,5.6924,3.7545,8.0751,4.3815,4.4298,4.7360,6.3943
5.3200,6.3769,4.7433,9.6841,3.4298,2.2015,5.4362,8.0001
4.7320,3.4601,3.5668,9.7254,2.2518,1.3080,7.1379,5.5203
3.4649,5.8096,4.4082,8.4610,2.7055,1.4956,1.6354,3.6984
0.7471,4.6164,0.5129,5.4158,0.9454,-1.2564,3.9742,4.6405
1.7220,2.5980,3.0878,5.7956,2.4580,0.7658,4.4083,2.6545
1.6419,4.1669,4.5654,6.0784,-0.9329,-0.7856,3.4682,2.4214
-0.0422,4.0560,2.2013,2.8782,1.4623,2.8527,4.9819,0.7372
4.0584,-0.2677,3.5018,1.9267,2.2231,5.6031,2.7645,4.2654
3.1232,0.3934,3.7291,-1.6081,1.1746,1.4873,2.3385,2.0363
1.2329,-0.4246,2.0655,-1.8440,4.4782,3.8451,3.0046,2.3893
1.0379,-1.7311,2.2291,-4.1874,6.2207,1.6436,1.4726,-0.2303
0.4367,-0.3205,-0.1625,-7.5002,1.8120,3.3990,-0.3114,0.9281
-4.0024,-3.1515,0.2764,-6.7728,1.2591,-1.3963,-0.1273,-2.0445
-2.3708,-4.3968,0.9153,-9.4875,-0.8732,-0.2791,-2.9788,-2.2126
-3.8484,-7.7521,-0.1211,-9.1427,-3.3972,-3.6363,-3.7039,-1.4704
-4.7042,-3.9374,-1.2612,-7.4528,-5.8824,-3.4617,-3.8437,-1.8655
-3.4048,-6.1609,0.3194,-6.1509,-4.2961,-4.7839,-0.6275,-2.6901
0.5653,-2.8765,1.8034,-6.6005,-4.5874,-1.2660,-6.4109,-4.2316
0.2309,-0.5840,-1.2849,-0.9404,1.5283,-2.2834,0.6711,4.5670
0.1661,3.4042,4.7618,0.9515,0.7532,1.7538,2.1471,4.7145
3.7154,1.8476,3.7509,1.7287,2.4812,2.4839,1.6569,5.2622
6.5747,1.4771,5.9375,2.9929,6.1338,4.6284,6.4710,4.8766
7.0083,7.9272,7.7849,7.1825,4.2999,6.2042,8.0123,7.1283
6.2101,11.2385,4.1494,8.2380,5.1782,5.1857,8.7472,7.0476
4.9484,10.4401,4.8384,9.8845,5.8899,6.1033,3.6509,9.5244
6.1314,8.1458,4.6640,9.2557,6.0291,6.7814,8.7050,7.0492
4.3775,5.7093,2.6978,6.2050,3.4430,1.5233,4.0045,3.9348
3.6022,5.8695,4.9601,7.4885,1.1193,2.5046,4.2603,2.5243
1.6905,1.2549,-0.5949,6.0455,-0.8848,1.2452,2.3734,2.9435
0.9885,1.5430,-1.8333,5.6073,-1.6925,-3.5171,-1.9008,1.8144
-2.4058,-0.1056,-2.3100,1.6054,-2.6965,-5.1816,-1.1905,0.1113
-0.3294,-0.7262,-5.9086,3.1014,-4.6963,-2.6984,-4.0670,-2.3532
-2.4789,0.5698,-6.0464,-4.3579,-2.8533,-3.7435,-7.6673,-4.9392
-0.0395,-4.1299,-6.1964,-1.5630,-4.1852,0.2282,-3.7526,-10.3665
-4.6219,-6.6330,-8.2844,-5.8366,-2.2660,-2.3354,-7.6034,-5.9951
-1.5920,-7.1327,-8.9368,-6.0641,-3.3017,-3.7841,-8.7368,-7.4578
-4.7154,-11.0455,-10.4765,-8.8955,0.5570,-4.9728,-9.1633,-8.3488
-6.9539,-10.7144,-12.6512,-8.6701,-4.4057,-2.7110,-9.2640,-9.5915
-7.6643,-11.3777,-10.3088,-11.8980,-7.7654,-6.5158,-10.7182,-12.6217
-8.1657,-12.2298,-8.1719,-13.3409,-7.0863,-6.8193,-10.3994,-10.3854
-7.3549,-11.2588,-10.2854,-9.2622,-6.9050,-6.2503,-13.2266,-10.2691
-6.8876,-11.9554,-8.9082,-10.5199,-5.2542,-8.4906,-11.5595,-9.4224
-7.4914,-7.3915,-6.5508,-8.2335,-7.8386,-7.0233,-9.0031,-7.4092
-4.9273,-6.5949,-7.3056,-4.2739,-7.6245,-5.2757,-3.5673,-5.5081
0.6155,-3.4875,-0.2559,-4.7426,-1.6010,-1.8013,-3.5480,-3.9924
